ATF	1.0
0	2
"AcquisitionMode=Episodic Stimulation"
"Comment=Slow-rising sim-EPSP - Single exponential"
"YTop=53.7"
"YBottom=-4.9"
"SweepStartTimesMS=0.000"
"SignalsExported=IN 0"
"Signals=	IN 0"
"Time (ms)"	"IN 0 (pA)"
0.000	0.000
0.050	0.746
0.100	1.483
0.150	2.211
0.200	2.931
0.250	3.642
0.300	4.345
0.350	5.040
0.400	5.727
0.450	6.405
0.500	7.076
0.550	7.738
0.600	8.393
0.650	9.040
0.700	9.679
0.750	10.310
0.800	10.934
0.850	11.550
0.900	12.158
0.950	12.760
1.000	13.354
1.050	13.941
1.100	14.520
1.150	15.092
1.200	15.658
1.250	16.216
1.300	16.768
1.350	17.312
1.400	17.850
1.450	18.381
1.500	18.905
1.550	19.423
1.600	19.935
1.650	20.439
1.700	20.938
1.750	21.430
1.800	21.915
1.850	22.395
1.900	22.868
1.950	23.335
2.000	23.796
2.050	24.251
2.100	24.701
2.150	25.144
2.200	25.581
2.250	26.013
2.300	26.439
2.350	26.859
2.400	27.274
2.450	27.683
2.500	28.086
2.550	28.484
2.600	28.877
2.650	29.264
2.700	29.646
2.750	30.023
2.800	30.395
2.850	30.761
2.900	31.122
2.950	31.479
3.000	31.830
3.050	32.176
3.100	32.518
3.150	32.854
3.200	33.186
3.250	33.513
3.300	33.835
3.350	34.153
3.400	34.466
3.450	34.774
3.500	35.078
3.550	35.378
3.600	35.672
3.650	35.963
3.700	36.249
3.750	36.531
3.800	36.808
3.850	37.082
3.900	37.351
3.950	37.616
4.000	37.877
4.050	38.133
4.100	38.386
4.150	38.635
4.200	38.880
4.250	39.121
4.300	39.358
4.350	39.591
4.400	39.820
4.450	40.046
4.500	40.268
4.550	40.486
4.600	40.701
4.650	40.911
4.700	41.119
4.750	41.323
4.800	41.523
4.850	41.720
4.900	41.913
4.950	42.103
5.000	42.290
5.050	42.473
5.100	42.653
5.150	42.830
5.200	43.004
5.250	43.174
5.300	43.341
5.350	43.505
5.400	43.666
5.450	43.824
5.500	43.979
5.550	44.130
5.600	44.279
5.650	44.425
5.700	44.568
5.750	44.708
5.800	44.845
5.850	44.980
5.900	45.111
5.950	45.240
6.000	45.366
6.050	45.489
6.100	45.610
6.150	45.728
6.200	45.843
6.250	45.956
6.300	46.066
6.350	46.174
6.400	46.279
6.450	46.382
6.500	46.482
6.550	46.580
6.600	46.675
6.650	46.768
6.700	46.858
6.750	46.946
6.800	47.032
6.850	47.116
6.900	47.197
6.950	47.276
7.000	47.353
7.050	47.427
7.100	47.500
7.150	47.570
7.200	47.638
7.250	47.704
7.300	47.768
7.350	47.830
7.400	47.890
7.450	47.948
7.500	48.004
7.550	48.058
7.600	48.110
7.650	48.160
7.700	48.208
7.750	48.254
7.800	48.298
7.850	48.341
7.900	48.381
7.950	48.420
8.000	48.457
8.050	48.493
8.100	48.526
8.150	48.558
8.200	48.588
8.250	48.617
8.300	48.643
8.350	48.668
8.400	48.692
8.450	48.714
8.500	48.734
8.550	48.753
8.600	48.770
8.650	48.785
8.700	48.799
8.750	48.812
8.800	48.823
8.850	48.832
8.900	48.840
8.950	48.847
9.000	48.852
9.050	48.856
9.100	48.858
9.150	48.859
9.200	48.859
9.250	48.857
9.300	48.854
9.350	48.850
9.400	48.845
9.450	48.838
9.500	48.829
9.550	48.820
9.600	48.809
9.650	48.798
9.700	48.784
9.750	48.770
9.800	48.755
9.850	48.738
9.900	48.720
9.950	48.701
10.000	48.681
10.050	48.660
10.100	48.638
10.150	48.614
10.200	48.590
10.250	48.565
10.300	48.538
10.350	48.510
10.400	48.482
10.450	48.452
10.500	48.422
10.550	48.390
10.600	48.358
10.650	48.324
10.700	48.290
10.750	48.254
10.800	48.218
10.850	48.181
10.900	48.143
10.950	48.104
11.000	48.064
11.050	48.023
11.100	47.982
11.150	47.939
11.200	47.896
11.250	47.852
11.300	47.807
11.350	47.761
11.400	47.715
11.450	47.667
11.500	47.619
11.550	47.571
11.600	47.521
11.650	47.471
11.700	47.420
11.750	47.368
11.800	47.316
11.850	47.263
11.900	47.209
11.950	47.154
12.000	47.099
12.050	47.043
12.100	46.987
12.150	46.930
12.200	46.872
12.250	46.814
12.300	46.755
12.350	46.695
12.400	46.635
12.450	46.574
12.500	46.513
12.550	46.451
12.600	46.388
12.650	46.325
12.700	46.261
12.750	46.197
12.800	46.133
12.850	46.067
12.900	46.002
12.950	45.935
13.000	45.869
13.050	45.802
13.100	45.734
13.150	45.666
13.200	45.597
13.250	45.528
13.300	45.458
13.350	45.388
13.400	45.318
13.450	45.247
13.500	45.176
13.550	45.104
13.600	45.032
13.650	44.959
13.700	44.886
13.750	44.813
13.800	44.739
13.850	44.665
13.900	44.590
13.950	44.516
14.000	44.440
14.050	44.365
14.100	44.289
14.150	44.213
14.200	44.136
14.250	44.059
14.300	43.982
14.350	43.904
14.400	43.826
14.450	43.748
14.500	43.670
14.550	43.591
14.600	43.512
14.650	43.432
14.700	43.353
14.750	43.273
14.800	43.193
14.850	43.112
14.900	43.031
14.950	42.950
15.000	42.869
15.050	42.788
15.100	42.706
15.150	42.624
15.200	42.542
15.250	42.460
15.300	42.377
15.350	42.294
15.400	42.211
15.450	42.128
15.500	42.045
15.550	41.961
15.600	41.877
15.650	41.793
15.700	41.709
15.750	41.625
15.800	41.540
15.850	41.456
15.900	41.371
15.950	41.286
16.000	41.201
16.050	41.115
16.100	41.030
16.150	40.944
16.200	40.859
16.250	40.773
16.300	40.687
16.350	40.601
16.400	40.514
16.450	40.428
16.500	40.341
16.550	40.255
16.600	40.168
16.650	40.081
16.700	39.995
16.750	39.908
16.800	39.820
16.850	39.733
16.900	39.646
16.950	39.559
17.000	39.471
17.050	39.384
17.100	39.296
17.150	39.209
17.200	39.121
17.250	39.033
17.300	38.945
17.350	38.857
17.400	38.769
17.450	38.681
17.500	38.593
17.550	38.505
17.600	38.417
17.650	38.329
17.700	38.241
17.750	38.153
17.800	38.064
17.850	37.976
17.900	37.888
17.950	37.799
18.000	37.711
18.050	37.623
18.100	37.534
18.150	37.446
18.200	37.358
18.250	37.269
18.300	37.181
18.350	37.092
18.400	37.004
18.450	36.915
18.500	36.827
18.550	36.739
18.600	36.650
18.650	36.562
18.700	36.474
18.750	36.385
18.800	36.297
18.850	36.209
18.900	36.120
18.950	36.032
19.000	35.944
19.050	35.856
19.100	35.767
19.150	35.679
19.200	35.591
19.250	35.503
19.300	35.415
19.350	35.327
19.400	35.239
19.450	35.151
19.500	35.064
19.550	34.976
19.600	34.888
19.650	34.800
19.700	34.713
19.750	34.625
19.800	34.538
19.850	34.450
19.900	34.363
19.950	34.276
20.000	34.188
20.050	34.101
20.100	34.014
20.150	33.927
20.200	33.840
20.250	33.753
20.300	33.667
20.350	33.580
20.400	33.493
20.450	33.407
20.500	33.320
20.550	33.234
20.600	33.147
20.650	33.061
20.700	32.975
20.750	32.889
20.800	32.803
20.850	32.717
20.900	32.631
20.950	32.546
21.000	32.460
21.050	32.374
21.100	32.289
21.150	32.204
21.200	32.119
21.250	32.033
21.300	31.948
21.350	31.864
21.400	31.779
21.450	31.694
21.500	31.609
21.550	31.525
21.600	31.441
21.650	31.356
21.700	31.272
21.750	31.188
21.800	31.104
21.850	31.020
21.900	30.937
21.950	30.853
22.000	30.770
22.050	30.686
22.100	30.603
22.150	30.520
22.200	30.437
22.250	30.354
22.300	30.272
22.350	30.189
22.400	30.106
22.450	30.024
22.500	29.942
22.550	29.860
22.600	29.778
22.650	29.696
22.700	29.614
22.750	29.533
22.800	29.451
22.850	29.370
22.900	29.289
22.950	29.208
23.000	29.127
23.050	29.046
23.100	28.965
23.150	28.885
23.200	28.804
23.250	28.724
23.300	28.644
23.350	28.564
23.400	28.484
23.450	28.404
23.500	28.325
23.550	28.245
23.600	28.166
23.650	28.087
23.700	28.008
23.750	27.929
23.800	27.851
23.850	27.772
23.900	27.694
23.950	27.615
24.000	27.537
24.050	27.459
24.100	27.381
24.150	27.304
24.200	27.226
24.250	27.149
24.300	27.071
24.350	26.994
24.400	26.917
24.450	26.841
24.500	26.764
24.550	26.687
24.600	26.611
24.650	26.535
24.700	26.459
24.750	26.383
24.800	26.307
24.850	26.232
24.900	26.156
24.950	26.081
25.000	26.006
25.050	25.931
25.100	25.856
25.150	25.781
25.200	25.707
25.250	25.632
25.300	25.558
25.350	25.484
25.400	25.410
25.450	25.336
25.500	25.263
25.550	25.189
25.600	25.116
25.650	25.043
25.700	24.970
25.750	24.897
25.800	24.825
25.850	24.752
25.900	24.680
25.950	24.608
26.000	24.536
26.050	24.464
26.100	24.392
26.150	24.320
26.200	24.249
26.250	24.178
26.300	24.107
26.350	24.036
26.400	23.965
26.450	23.895
26.500	23.824
26.550	23.754
26.600	23.684
26.650	23.614
26.700	23.544
26.750	23.474
26.800	23.405
26.850	23.335
26.900	23.266
26.950	23.197
27.000	23.128
27.050	23.060
27.100	22.991
27.150	22.923
27.200	22.855
27.250	22.787
27.300	22.719
27.350	22.651
27.400	22.583
27.450	22.516
27.500	22.449
27.550	22.382
27.600	22.315
27.650	22.248
27.700	22.181
27.750	22.115
27.800	22.049
27.850	21.983
27.900	21.917
27.950	21.851
28.000	21.785
28.050	21.720
28.100	21.654
28.150	21.589
28.200	21.524
28.250	21.459
28.300	21.395
28.350	21.330
28.400	21.266
28.450	21.202
28.500	21.138
28.550	21.074
28.600	21.010
28.650	20.946
28.700	20.883
28.750	20.820
28.800	20.757
28.850	20.694
28.900	20.631
28.950	20.568
29.000	20.506
29.050	20.443
29.100	20.381
29.150	20.319
29.200	20.258
29.250	20.196
29.300	20.134
29.350	20.073
29.400	20.012
29.450	19.951
29.500	19.890
29.550	19.829
29.600	19.769
29.650	19.708
29.700	19.648
29.750	19.588
29.800	19.528
29.850	19.468
29.900	19.408
29.950	19.349
30.000	19.290
30.050	19.230
30.100	19.171
30.150	19.113
30.200	19.054
30.250	18.995
30.300	18.937
30.350	18.879
30.400	18.821
30.450	18.763
30.500	18.705
30.550	18.647
30.600	18.590
30.650	18.532
30.700	18.475
30.750	18.418
30.800	18.361
30.850	18.305
30.900	18.248
30.950	18.192
31.000	18.136
31.050	18.079
31.100	18.023
31.150	17.968
31.200	17.912
31.250	17.857
31.300	17.801
31.350	17.746
31.400	17.691
31.450	17.636
31.500	17.581
31.550	17.527
31.600	17.472
31.650	17.418
31.700	17.364
31.750	17.310
31.800	17.256
31.850	17.202
31.900	17.149
31.950	17.095
32.000	17.042
32.050	16.989
32.100	16.936
32.150	16.883
32.200	16.831
32.250	16.778
32.300	16.726
32.350	16.673
32.400	16.621
32.450	16.569
32.500	16.518
32.550	16.466
32.600	16.414
32.650	16.363
32.700	16.312
32.750	16.261
32.800	16.210
32.850	16.159
32.900	16.108
32.950	16.058
33.000	16.007
33.050	15.957
33.100	15.907
33.150	15.857
33.200	15.807
33.250	15.758
33.300	15.708
33.350	15.659
33.400	15.610
33.450	15.561
33.500	15.512
33.550	15.463
33.600	15.414
33.650	15.366
33.700	15.317
33.750	15.269
33.800	15.221
33.850	15.173
33.900	15.125
33.950	15.077
34.000	15.030
34.050	14.982
34.100	14.935
34.150	14.888
34.200	14.841
34.250	14.794
34.300	14.747
34.350	14.700
34.400	14.654
34.450	14.608
34.500	14.561
34.550	14.515
34.600	14.469
34.650	14.424
34.700	14.378
34.750	14.332
34.800	14.287
34.850	14.242
34.900	14.196
34.950	14.151
35.000	14.107
35.050	14.062
35.100	14.017
35.150	13.973
35.200	13.928
35.250	13.884
35.300	13.840
35.350	13.796
35.400	13.752
35.450	13.708
35.500	13.665
35.550	13.621
35.600	13.578
35.650	13.535
35.700	13.492
35.750	13.449
35.800	13.406
35.850	13.363
35.900	13.321
35.950	13.278
36.000	13.236
36.050	13.194
36.100	13.152
36.150	13.110
36.200	13.068
36.250	13.026
36.300	12.985
36.350	12.943
36.400	12.902
36.450	12.861
36.500	12.819
36.550	12.779
36.600	12.738
36.650	12.697
36.700	12.656
36.750	12.616
36.800	12.576
36.850	12.535
36.900	12.495
36.950	12.455
37.000	12.415
37.050	12.376
37.100	12.336
37.150	12.296
37.200	12.257
37.250	12.218
37.300	12.179
37.350	12.140
37.400	12.101
37.450	12.062
37.500	12.023
37.550	11.985
37.600	11.946
37.650	11.908
37.700	11.870
37.750	11.831
37.800	11.793
37.850	11.756
37.900	11.718
37.950	11.680
38.000	11.643
38.050	11.605
38.100	11.568
38.150	11.531
38.200	11.494
38.250	11.457
38.300	11.420
38.350	11.383
38.400	11.346
38.450	11.310
38.500	11.274
38.550	11.237
38.600	11.201
38.650	11.165
38.700	11.129
38.750	11.093
38.800	11.057
38.850	11.022
38.900	10.986
38.950	10.951
39.000	10.916
39.050	10.880
39.100	10.845
39.150	10.810
39.200	10.775
39.250	10.741
39.300	10.706
39.350	10.671
39.400	10.637
39.450	10.603
39.500	10.568
39.550	10.534
39.600	10.500
39.650	10.466
39.700	10.432
39.750	10.399
39.800	10.365
39.850	10.332
39.900	10.298
39.950	10.265
40.000	10.232
40.050	10.199
40.100	10.166
40.150	10.133
40.200	10.100
40.250	10.067
40.300	10.035
40.350	10.002
40.400	9.970
40.450	9.937
40.500	9.905
40.550	9.873
40.600	9.841
40.650	9.809
40.700	9.777
40.750	9.746
40.800	9.714
40.850	9.683
40.900	9.651
40.950	9.620
41.000	9.589
41.050	9.558
41.100	9.527
41.150	9.496
41.200	9.465
41.250	9.434
41.300	9.404
41.350	9.373
41.400	9.343
41.450	9.312
41.500	9.282
41.550	9.252
41.600	9.222
41.650	9.192
41.700	9.162
41.750	9.132
41.800	9.103
41.850	9.073
41.900	9.043
41.950	9.014
42.000	8.985
42.050	8.956
42.100	8.926
42.150	8.897
42.200	8.868
42.250	8.840
42.300	8.811
42.350	8.782
42.400	8.754
42.450	8.725
42.500	8.697
42.550	8.668
42.600	8.640
42.650	8.612
42.700	8.584
42.750	8.556
42.800	8.528
42.850	8.500
42.900	8.473
42.950	8.445
43.000	8.417
43.050	8.390
43.100	8.363
43.150	8.335
43.200	8.308
43.250	8.281
43.300	8.254
43.350	8.227
43.400	8.200
43.450	8.174
43.500	8.147
43.550	8.120
43.600	8.094
43.650	8.067
43.700	8.041
43.750	8.015
43.800	7.989
43.850	7.963
43.900	7.937
43.950	7.911
44.000	7.885
44.050	7.859
44.100	7.833
44.150	7.808
44.200	7.782
44.250	7.757
44.300	7.732
44.350	7.706
44.400	7.681
44.450	7.656
44.500	7.631
44.550	7.606
44.600	7.581
44.650	7.556
44.700	7.532
44.750	7.507
44.800	7.483
44.850	7.458
44.900	7.434
44.950	7.409
45.000	7.385
45.050	7.361
45.100	7.337
45.150	7.313
45.200	7.289
45.250	7.265
45.300	7.241
45.350	7.218
45.400	7.194
45.450	7.170
45.500	7.147
45.550	7.123
45.600	7.100
45.650	7.077
45.700	7.054
45.750	7.031
45.800	7.008
45.850	6.985
45.900	6.962
45.950	6.939
46.000	6.916
46.050	6.894
46.100	6.871
46.150	6.848
46.200	6.826
46.250	6.804
46.300	6.781
46.350	6.759
46.400	6.737
46.450	6.715
46.500	6.693
46.550	6.671
46.600	6.649
46.650	6.627
46.700	6.605
46.750	6.584
46.800	6.562
46.850	6.541
46.900	6.519
46.950	6.498
47.000	6.476
47.050	6.455
47.100	6.434
47.150	6.413
47.200	6.392
47.250	6.371
47.300	6.350
47.350	6.329
47.400	6.308
47.450	6.288
47.500	6.267
47.550	6.246
47.600	6.226
47.650	6.205
47.700	6.185
47.750	6.165
47.800	6.144
47.850	6.124
47.900	6.104
47.950	6.084
48.000	6.064
48.050	6.044
48.100	6.024
48.150	6.004
48.200	5.985
48.250	5.965
48.300	5.945
48.350	5.926
48.400	5.906
48.450	5.887
48.500	5.868
48.550	5.848
48.600	5.829
48.650	5.810
48.700	5.791
48.750	5.772
48.800	5.753
48.850	5.734
48.900	5.715
48.950	5.696
49.000	5.677
49.050	5.659
49.100	5.640
49.150	5.622
49.200	5.603
49.250	5.585
49.300	5.566
49.350	5.548
49.400	5.530
49.450	5.511
49.500	5.493
49.550	5.475
49.600	5.457
49.650	5.439
49.700	5.421
49.750	5.403
49.800	5.386
49.850	5.368
49.900	5.350
49.950	5.333
50.000	5.315
50.050	5.298
50.100	5.280
50.150	5.263
50.200	5.245
50.250	5.228
50.300	5.211
50.350	5.194
50.400	5.177
50.450	5.159
50.500	5.142
50.550	5.126
50.600	5.109
50.650	5.092
50.700	5.075
50.750	5.058
50.800	5.042
50.850	5.025
50.900	5.008
50.950	4.992
51.000	4.975
51.050	4.959
51.100	4.943
51.150	4.926
51.200	4.910
51.250	4.894
51.300	4.878
51.350	4.862
51.400	4.846
51.450	4.830
51.500	4.814
51.550	4.798
51.600	4.782
51.650	4.766
51.700	4.751
51.750	4.735
51.800	4.719
51.850	4.704
51.900	4.688
51.950	4.673
52.000	4.657
52.050	4.642
52.100	4.627
52.150	4.611
52.200	4.596
52.250	4.581
52.300	4.566
52.350	4.551
52.400	4.536
52.450	4.521
52.500	4.506
52.550	4.491
52.600	4.476
52.650	4.461
52.700	4.447
52.750	4.432
52.800	4.417
52.850	4.403
52.900	4.388
52.950	4.374
53.000	4.359
53.050	4.345
53.100	4.330
53.150	4.316
53.200	4.302
53.250	4.288
53.300	4.274
53.350	4.259
53.400	4.245
53.450	4.231
53.500	4.217
53.550	4.203
53.600	4.190
53.650	4.176
53.700	4.162
53.750	4.148
53.800	4.134
53.850	4.121
53.900	4.107
53.950	4.094
54.000	4.080
54.050	4.067
54.100	4.053
54.150	4.040
54.200	4.026
54.250	4.013
54.300	4.000
54.350	3.987
54.400	3.973
54.450	3.960
54.500	3.947
54.550	3.934
54.600	3.921
54.650	3.908
54.700	3.895
54.750	3.882
54.800	3.869
54.850	3.857
54.900	3.844
54.950	3.831
55.000	3.819
55.050	3.806
55.100	3.793
55.150	3.781
55.200	3.768
55.250	3.756
55.300	3.743
55.350	3.731
55.400	3.719
55.450	3.706
55.500	3.694
55.550	3.682
55.600	3.670
55.650	3.658
55.700	3.645
55.750	3.633
55.800	3.621
55.850	3.609
55.900	3.597
55.950	3.586
56.000	3.574
56.050	3.562
56.100	3.550
56.150	3.538
56.200	3.527
56.250	3.515
56.300	3.503
56.350	3.492
56.400	3.480
56.450	3.469
56.500	3.457
56.550	3.446
56.600	3.434
56.650	3.423
56.700	3.412
56.750	3.400
56.800	3.389
56.850	3.378
56.900	3.367
56.950	3.355
57.000	3.344
57.050	3.333
57.100	3.322
57.150	3.311
57.200	3.300
57.250	3.289
57.300	3.278
57.350	3.268
57.400	3.257
57.450	3.246
57.500	3.235
57.550	3.225
57.600	3.214
57.650	3.203
57.700	3.193
57.750	3.182
57.800	3.172
57.850	3.161
57.900	3.151
57.950	3.140
58.000	3.130
58.050	3.119
58.100	3.109
58.150	3.099
58.200	3.088
58.250	3.078
58.300	3.068
58.350	3.058
58.400	3.048
58.450	3.038
58.500	3.028
58.550	3.018
58.600	3.008
58.650	2.998
58.700	2.988
58.750	2.978
58.800	2.968
58.850	2.958
58.900	2.948
58.950	2.938
59.000	2.929
59.050	2.919
59.100	2.909
59.150	2.900
59.200	2.890
59.250	2.880
59.300	2.871
59.350	2.861
59.400	2.852
59.450	2.842
59.500	2.833
59.550	2.824
59.600	2.814
59.650	2.805
59.700	2.796
59.750	2.786
59.800	2.777
59.850	2.768
59.900	2.759
59.950	2.750
60.000	2.741
60.050	2.731
60.100	2.722
60.150	2.713
60.200	2.704
60.250	2.695
60.300	2.686
60.350	2.678
60.400	2.669
60.450	2.660
60.500	2.651
60.550	2.642
60.600	2.633
60.650	2.625
60.700	2.616
60.750	2.607
60.800	2.599
60.850	2.590
60.900	2.581
60.950	2.573
61.000	2.564
61.050	2.556
61.100	2.547
61.150	2.539
61.200	2.531
61.250	2.522
61.300	2.514
61.350	2.505
61.400	2.497
61.450	2.489
61.500	2.481
61.550	2.472
61.600	2.464
61.650	2.456
61.700	2.448
61.750	2.440
61.800	2.432
61.850	2.424
61.900	2.416
61.950	2.408
62.000	2.400
62.050	2.392
62.100	2.384
62.150	2.376
62.200	2.368
62.250	2.360
62.300	2.352
62.350	2.344
62.400	2.337
62.450	2.329
62.500	2.321
62.550	2.313
62.600	2.306
62.650	2.298
62.700	2.290
62.750	2.283
62.800	2.275
62.850	2.268
62.900	2.260
62.950	2.253
63.000	2.245
63.050	2.238
63.100	2.230
63.150	2.223
63.200	2.216
63.250	2.208
63.300	2.201
63.350	2.194
63.400	2.186
63.450	2.179
63.500	2.172
63.550	2.165
63.600	2.157
63.650	2.150
63.700	2.143
63.750	2.136
63.800	2.129
63.850	2.122
63.900	2.115
63.950	2.108
64.000	2.101
64.050	2.094
64.100	2.087
64.150	2.080
64.200	2.073
64.250	2.066
64.300	2.059
64.350	2.052
64.400	2.046
64.450	2.039
64.500	2.032
64.550	2.025
64.600	2.019
64.650	2.012
64.700	2.005
64.750	1.999
64.800	1.992
64.850	1.985
64.900	1.979
64.950	1.972
65.000	1.966
65.050	1.959
65.100	1.953
65.150	1.946
65.200	1.940
65.250	1.933
65.300	1.927
65.350	1.920
65.400	1.914
65.450	1.908
65.500	1.901
65.550	1.895
65.600	1.889
65.650	1.882
65.700	1.876
65.750	1.870
65.800	1.864
65.850	1.858
65.900	1.851
65.950	1.845
66.000	1.839
66.050	1.833
66.100	1.827
66.150	1.821
66.200	1.815
66.250	1.809
66.300	1.803
66.350	1.797
66.400	1.791
66.450	1.785
66.500	1.779
66.550	1.773
66.600	1.767
66.650	1.761
66.700	1.755
66.750	1.750
66.800	1.744
66.850	1.738
66.900	1.732
66.950	1.726
67.000	1.721
67.050	1.715
67.100	1.709
67.150	1.704
67.200	1.698
67.250	1.692
67.300	1.687
67.350	1.681
67.400	1.676
67.450	1.670
67.500	1.664
67.550	1.659
67.600	1.653
67.650	1.648
67.700	1.642
67.750	1.637
67.800	1.631
67.850	1.626
67.900	1.621
67.950	1.615
68.000	1.610
68.050	1.605
68.100	1.599
68.150	1.594
68.200	1.589
68.250	1.583
68.300	1.578
68.350	1.573
68.400	1.568
68.450	1.562
68.500	1.557
68.550	1.552
68.600	1.547
68.650	1.542
68.700	1.537
68.750	1.532
68.800	1.526
68.850	1.521
68.900	1.516
68.950	1.511
69.000	1.506
69.050	1.501
69.100	1.496
69.150	1.491
69.200	1.486
69.250	1.481
69.300	1.476
69.350	1.472
69.400	1.467
69.450	1.462
69.500	1.457
69.550	1.452
69.600	1.447
69.650	1.442
69.700	1.438
69.750	1.433
69.800	1.428
69.850	1.423
69.900	1.419
69.950	1.414
70.000	1.409
70.050	1.405
70.100	1.400
70.150	1.395
70.200	1.391
70.250	1.386
70.300	1.381
70.350	1.377
70.400	1.372
70.450	1.368
70.500	1.363
70.550	1.359
70.600	1.354
70.650	1.350
70.700	1.345
70.750	1.341
70.800	1.336
70.850	1.332
70.900	1.327
70.950	1.323
71.000	1.318
71.050	1.314
71.100	1.310
71.150	1.305
71.200	1.301
71.250	1.297
71.300	1.292
71.350	1.288
71.400	1.284
71.450	1.280
71.500	1.275
71.550	1.271
71.600	1.267
71.650	1.263
71.700	1.258
71.750	1.254
71.800	1.250
71.850	1.246
71.900	1.242
71.950	1.238
72.000	1.234
72.050	1.229
72.100	1.225
72.150	1.221
72.200	1.217
72.250	1.213
72.300	1.209
72.350	1.205
72.400	1.201
72.450	1.197
72.500	1.193
72.550	1.189
72.600	1.185
72.650	1.181
72.700	1.177
72.750	1.173
72.800	1.170
72.850	1.166
72.900	1.162
72.950	1.158
73.000	1.154
73.050	1.150
73.100	1.146
73.150	1.143
73.200	1.139
73.250	1.135
73.300	1.131
73.350	1.127
73.400	1.124
73.450	1.120
73.500	1.116
73.550	1.113
73.600	1.109
73.650	1.105
73.700	1.101
73.750	1.098
73.800	1.094
73.850	1.091
73.900	1.087
73.950	1.083
74.000	1.080
74.050	1.076
74.100	1.073
74.150	1.069
74.200	1.065
74.250	1.062
74.300	1.058
74.350	1.055
74.400	1.051
74.450	1.048
74.500	1.044
74.550	1.041
74.600	1.037
74.650	1.034
74.700	1.031
74.750	1.027
74.800	1.024
74.850	1.020
74.900	1.017
74.950	1.014
75.000	1.010
75.050	1.007
75.100	1.003
75.150	1.000
75.200	0.997
75.250	0.993
75.300	0.990
75.350	0.987
75.400	0.984
75.450	0.980
75.500	0.977
75.550	0.974
75.600	0.971
75.650	0.967
75.700	0.964
75.750	0.961
75.800	0.958
75.850	0.955
75.900	0.951
75.950	0.948
76.000	0.945
76.050	0.942
76.100	0.939
76.150	0.936
76.200	0.933
76.250	0.929
76.300	0.926
76.350	0.923
76.400	0.920
76.450	0.917
76.500	0.914
76.550	0.911
76.600	0.908
76.650	0.905
76.700	0.902
76.750	0.899
76.800	0.896
76.850	0.893
76.900	0.890
76.950	0.887
77.000	0.884
77.050	0.881
77.100	0.878
77.150	0.875
77.200	0.872
77.250	0.870
77.300	0.867
77.350	0.864
77.400	0.861
77.450	0.858
77.500	0.855
77.550	0.852
77.600	0.849
77.650	0.847
77.700	0.844
77.750	0.841
77.800	0.838
77.850	0.835
77.900	0.833
77.950	0.830
78.000	0.827
78.050	0.824
78.100	0.822
78.150	0.819
78.200	0.816
78.250	0.813
78.300	0.811
78.350	0.808
78.400	0.805
78.450	0.803
78.500	0.800
78.550	0.797
78.600	0.795
78.650	0.792
78.700	0.789
78.750	0.787
78.800	0.784
78.850	0.782
78.900	0.779
78.950	0.776
79.000	0.774
79.050	0.771
79.100	0.769
79.150	0.766
79.200	0.764
79.250	0.761
79.300	0.759
79.350	0.756
79.400	0.753
79.450	0.751
79.500	0.748
79.550	0.746
79.600	0.744
79.650	0.741
79.700	0.739
79.750	0.736
79.800	0.734
79.850	0.731
79.900	0.729
79.950	0.726
80.000	0.724
80.050	0.722
80.100	0.719
80.150	0.717
80.200	0.714
80.250	0.712
80.300	0.710
80.350	0.707
80.400	0.705
80.450	0.703
80.500	0.700
80.550	0.698
80.600	0.696
80.650	0.693
80.700	0.691
80.750	0.689
80.800	0.686
80.850	0.684
80.900	0.682
80.950	0.680
81.000	0.677
81.050	0.675
81.100	0.673
81.150	0.671
81.200	0.668
81.250	0.666
81.300	0.664
81.350	0.662
81.400	0.659
81.450	0.657
81.500	0.655
81.550	0.653
81.600	0.651
81.650	0.649
81.700	0.646
81.750	0.644
81.800	0.642
81.850	0.640
81.900	0.638
81.950	0.636
82.000	0.634
82.050	0.632
82.100	0.629
82.150	0.627
82.200	0.625
82.250	0.623
82.300	0.621
82.350	0.619
82.400	0.617
82.450	0.615
82.500	0.613
82.550	0.611
82.600	0.609
82.650	0.607
82.700	0.605
82.750	0.603
82.800	0.601
82.850	0.599
82.900	0.597
82.950	0.595
83.000	0.593
83.050	0.591
83.100	0.589
83.150	0.587
83.200	0.585
83.250	0.583
83.300	0.581
83.350	0.579
83.400	0.577
83.450	0.575
83.500	0.573
83.550	0.571
83.600	0.570
83.650	0.568
83.700	0.566
83.750	0.564
83.800	0.562
83.850	0.560
83.900	0.558
83.950	0.556
84.000	0.555
84.050	0.553
84.100	0.551
84.150	0.549
84.200	0.547
84.250	0.545
84.300	0.544
84.350	0.542
84.400	0.540
84.450	0.538
84.500	0.536
84.550	0.535
84.600	0.533
84.650	0.531
84.700	0.529
84.750	0.528
84.800	0.526
84.850	0.524
84.900	0.522
84.950	0.521
85.000	0.519
85.050	0.517
85.100	0.515
85.150	0.514
85.200	0.512
85.250	0.510
85.300	0.509
85.350	0.507
85.400	0.505
85.450	0.503
85.500	0.502
85.550	0.500
85.600	0.498
85.650	0.497
85.700	0.495
85.750	0.494
85.800	0.492
85.850	0.490
85.900	0.489
85.950	0.487
86.000	0.485
86.050	0.484
86.100	0.482
86.150	0.481
86.200	0.479
86.250	0.477
86.300	0.476
86.350	0.474
86.400	0.473
86.450	0.471
86.500	0.469
86.550	0.468
86.600	0.466
86.650	0.465
86.700	0.463
86.750	0.462
86.800	0.460
86.850	0.459
86.900	0.457
86.950	0.456
87.000	0.454
87.050	0.453
87.100	0.451
87.150	0.450
87.200	0.448
87.250	0.447
87.300	0.445
87.350	0.444
87.400	0.442
87.450	0.441
87.500	0.439
87.550	0.438
87.600	0.436
87.650	0.435
87.700	0.433
87.750	0.432
87.800	0.430
87.850	0.429
87.900	0.428
87.950	0.426
88.000	0.425
88.050	0.423
88.100	0.422
88.150	0.421
88.200	0.419
88.250	0.418
88.300	0.416
88.350	0.415
88.400	0.414
88.450	0.412
88.500	0.411
88.550	0.409
88.600	0.408
88.650	0.407
88.700	0.405
88.750	0.404
88.800	0.403
88.850	0.401
88.900	0.400
88.950	0.399
89.000	0.397
89.050	0.396
89.100	0.395
89.150	0.393
89.200	0.392
89.250	0.391
89.300	0.390
89.350	0.388
89.400	0.387
89.450	0.386
89.500	0.384
89.550	0.383
89.600	0.382
89.650	0.381
89.700	0.379
89.750	0.378
89.800	0.377
89.850	0.376
89.900	0.374
89.950	0.373
90.000	0.372
90.050	0.371
90.100	0.369
90.150	0.368
90.200	0.367
90.250	0.366
90.300	0.364
90.350	0.363
90.400	0.362
90.450	0.361
90.500	0.360
90.550	0.358
90.600	0.357
90.650	0.356
90.700	0.355
90.750	0.354
90.800	0.352
90.850	0.351
90.900	0.350
90.950	0.349
91.000	0.348
91.050	0.347
91.100	0.345
91.150	0.344
91.200	0.343
91.250	0.342
91.300	0.341
91.350	0.340
91.400	0.339
91.450	0.338
91.500	0.336
91.550	0.335
91.600	0.334
91.650	0.333
91.700	0.332
91.750	0.331
91.800	0.330
91.850	0.329
91.900	0.328
91.950	0.326
92.000	0.325
92.050	0.324
92.100	0.323
92.150	0.322
92.200	0.321
92.250	0.320
92.300	0.319
92.350	0.318
92.400	0.317
92.450	0.316
92.500	0.315
92.550	0.314
92.600	0.313
92.650	0.312
92.700	0.311
92.750	0.310
92.800	0.308
92.850	0.307
92.900	0.306
92.950	0.305
93.000	0.304
93.050	0.303
93.100	0.302
93.150	0.301
93.200	0.300
93.250	0.299
93.300	0.298
93.350	0.297
93.400	0.296
93.450	0.295
93.500	0.294
93.550	0.293
93.600	0.292
93.650	0.291
93.700	0.291
93.750	0.290
93.800	0.289
93.850	0.288
93.900	0.287
93.950	0.286
94.000	0.285
94.050	0.284
94.100	0.283
94.150	0.282
94.200	0.281
94.250	0.280
94.300	0.279
94.350	0.278
94.400	0.277
94.450	0.276
94.500	0.275
94.550	0.275
94.600	0.274
94.650	0.273
94.700	0.272
94.750	0.271
94.800	0.270
94.850	0.269
94.900	0.268
94.950	0.267
95.000	0.266
95.050	0.266
95.100	0.265
95.150	0.264
95.200	0.263
95.250	0.262
95.300	0.261
95.350	0.260
95.400	0.259
95.450	0.259
95.500	0.258
95.550	0.257
95.600	0.256
95.650	0.255
95.700	0.254
95.750	0.253
95.800	0.253
95.850	0.252
95.900	0.251
95.950	0.250
96.000	0.249
96.050	0.248
96.100	0.248
96.150	0.247
96.200	0.246
96.250	0.245
96.300	0.244
96.350	0.243
96.400	0.243
96.450	0.242
96.500	0.241
96.550	0.240
96.600	0.239
96.650	0.239
96.700	0.238
96.750	0.237
96.800	0.236
96.850	0.235
96.900	0.235
96.950	0.234
97.000	0.233
97.050	0.232
97.100	0.232
97.150	0.231
97.200	0.230
97.250	0.229
97.300	0.229
97.350	0.228
97.400	0.227
97.450	0.226
97.500	0.226
97.550	0.225
97.600	0.224
97.650	0.223
97.700	0.223
97.750	0.222
97.800	0.221
97.850	0.220
97.900	0.220
97.950	0.219
98.000	0.218
98.050	0.217
98.100	0.217
98.150	0.216
98.200	0.215
98.250	0.215
98.300	0.214
98.350	0.213
98.400	0.212
98.450	0.212
98.500	0.211
98.550	0.210
98.600	0.210
98.650	0.209
98.700	0.208
98.750	0.207
98.800	0.207
98.850	0.206
98.900	0.205
98.950	0.205
99.000	0.204
99.050	0.203
99.100	0.203
99.150	0.202
99.200	0.201
99.250	0.201
99.300	0.200
99.350	0.199
99.400	0.199
99.450	0.198
99.500	0.197
99.550	0.197
99.600	0.196
99.650	0.195
99.700	0.195
99.750	0.194
99.800	0.193
99.850	0.193
99.900	0.192
99.950	0.192
100.000	0.191
