ATF	1.0
0	2
"AcquisitionMode=Episodic Stimulation"
"Comment=Fast-rising sim-EPSP - Double exponential"
"YTop=157.2"
"YBottom=-14.3"
"SweepStartTimesMS=0.000"
"SignalsExported=IN 0"
"Signals=	IN 0"
"Time (ms)"	"IN 0 (pA)"
0.000	0.000
0.050	142.877
0.100	138.003
0.150	132.495
0.200	127.279
0.250	122.347
0.300	117.685
0.350	113.278
0.400	109.113
0.450	105.178
0.500	101.461
0.550	97.950
0.600	94.636
0.650	91.507
0.700	88.554
0.750	85.769
0.800	83.142
0.850	80.665
0.900	78.330
0.950	76.130
1.000	74.057
1.050	72.105
1.100	70.268
1.150	68.539
1.200	66.913
1.250	65.384
1.300	63.947
1.350	62.596
1.400	61.329
1.450	60.139
1.500	59.022
1.550	57.976
1.600	56.995
1.650	56.076
1.700	55.216
1.750	54.412
1.800	53.660
1.850	52.957
1.900	52.301
1.950	51.690
2.000	51.120
2.050	50.589
2.100	50.095
2.150	49.636
2.200	49.210
2.250	48.814
2.300	48.448
2.350	48.109
2.400	47.796
2.450	47.507
2.500	47.240
2.550	46.995
2.600	46.770
2.650	46.564
2.700	46.375
2.750	46.203
2.800	46.046
2.850	45.903
2.900	45.774
2.950	45.658
3.000	45.553
3.050	45.459
3.100	45.375
3.150	45.301
3.200	45.236
3.250	45.178
3.300	45.128
3.350	45.085
3.400	45.049
3.450	45.018
3.500	44.993
3.550	44.973
3.600	44.957
3.650	44.945
3.700	44.938
3.750	44.933
3.800	44.932
3.850	44.933
3.900	44.937
3.950	44.943
4.000	44.951
4.050	44.961
4.100	44.972
4.150	44.985
4.200	44.998
4.250	45.012
4.300	45.027
4.350	45.043
4.400	45.058
4.450	45.074
4.500	45.090
4.550	45.106
4.600	45.122
4.650	45.138
4.700	45.153
4.750	45.167
4.800	45.181
4.850	45.195
4.900	45.207
4.950	45.219
5.000	45.230
5.050	45.240
5.100	45.249
5.150	45.257
5.200	45.264
5.250	45.270
5.300	45.275
5.350	45.279
5.400	45.281
5.450	45.282
5.500	45.282
5.550	45.281
5.600	45.278
5.650	45.275
5.700	45.269
5.750	45.263
5.800	45.255
5.850	45.246
5.900	45.236
5.950	45.224
6.000	45.211
6.050	45.197
6.100	45.181
6.150	45.164
6.200	45.146
6.250	45.126
6.300	45.105
6.350	45.083
6.400	45.059
6.450	45.034
6.500	45.008
6.550	44.981
6.600	44.953
6.650	44.923
6.700	44.892
6.750	44.860
6.800	44.826
6.850	44.792
6.900	44.756
6.950	44.719
7.000	44.681
7.050	44.642
7.100	44.602
7.150	44.561
7.200	44.519
7.250	44.476
7.300	44.431
7.350	44.386
7.400	44.340
7.450	44.292
7.500	44.244
7.550	44.195
7.600	44.145
7.650	44.094
7.700	44.042
7.750	43.989
7.800	43.935
7.850	43.881
7.900	43.825
7.950	43.769
8.000	43.712
8.050	43.655
8.100	43.596
8.150	43.537
8.200	43.477
8.250	43.416
8.300	43.355
8.350	43.293
8.400	43.230
8.450	43.167
8.500	43.103
8.550	43.038
8.600	42.973
8.650	42.907
8.700	42.840
8.750	42.773
8.800	42.706
8.850	42.638
8.900	42.569
8.950	42.500
9.000	42.430
9.050	42.360
9.100	42.289
9.150	42.218
9.200	42.147
9.250	42.075
9.300	42.002
9.350	41.930
9.400	41.856
9.450	41.783
9.500	41.709
9.550	41.634
9.600	41.559
9.650	41.484
9.700	41.409
9.750	41.333
9.800	41.257
9.850	41.180
9.900	41.104
9.950	41.027
10.000	40.949
10.050	40.872
10.100	40.794
10.150	40.716
10.200	40.637
10.250	40.559
10.300	40.480
10.350	40.401
10.400	40.322
10.450	40.242
10.500	40.163
10.550	40.083
10.600	40.003
10.650	39.922
10.700	39.842
10.750	39.762
10.800	39.681
10.850	39.600
10.900	39.519
10.950	39.438
11.000	39.357
11.050	39.275
11.100	39.194
11.150	39.112
11.200	39.031
11.250	38.949
11.300	38.867
11.350	38.785
11.400	38.703
11.450	38.621
11.500	38.539
11.550	38.456
11.600	38.374
11.650	38.292
11.700	38.209
11.750	38.127
11.800	38.044
11.850	37.962
11.900	37.879
11.950	37.797
12.000	37.714
12.050	37.631
12.100	37.549
12.150	37.466
12.200	37.384
12.250	37.301
12.300	37.218
12.350	37.136
12.400	37.053
12.450	36.971
12.500	36.888
12.550	36.805
12.600	36.723
12.650	36.640
12.700	36.558
12.750	36.475
12.800	36.393
12.850	36.311
12.900	36.228
12.950	36.146
13.000	36.064
13.050	35.982
13.100	35.900
13.150	35.818
13.200	35.736
13.250	35.654
13.300	35.572
13.350	35.490
13.400	35.408
13.450	35.327
13.500	35.245
13.550	35.164
13.600	35.082
13.650	35.001
13.700	34.920
13.750	34.839
13.800	34.758
13.850	34.677
13.900	34.596
13.950	34.515
14.000	34.434
14.050	34.354
14.100	34.273
14.150	34.193
14.200	34.112
14.250	34.032
14.300	33.952
14.350	33.872
14.400	33.792
14.450	33.713
14.500	33.633
14.550	33.553
14.600	33.474
14.650	33.395
14.700	33.315
14.750	33.236
14.800	33.157
14.850	33.079
14.900	33.000
14.950	32.921
15.000	32.843
15.050	32.765
15.100	32.686
15.150	32.608
15.200	32.530
15.250	32.453
15.300	32.375
15.350	32.297
15.400	32.220
15.450	32.143
15.500	32.065
15.550	31.988
15.600	31.911
15.650	31.835
15.700	31.758
15.750	31.682
15.800	31.605
15.850	31.529
15.900	31.453
15.950	31.377
16.000	31.301
16.050	31.226
16.100	31.150
16.150	31.075
16.200	30.999
16.250	30.924
16.300	30.849
16.350	30.775
16.400	30.700
16.450	30.625
16.500	30.551
16.550	30.477
16.600	30.403
16.650	30.329
16.700	30.255
16.750	30.181
16.800	30.108
16.850	30.035
16.900	29.961
16.950	29.888
17.000	29.816
17.050	29.743
17.100	29.670
17.150	29.598
17.200	29.525
17.250	29.453
17.300	29.381
17.350	29.310
17.400	29.238
17.450	29.166
17.500	29.095
17.550	29.024
17.600	28.953
17.650	28.882
17.700	28.811
17.750	28.740
17.800	28.670
17.850	28.599
17.900	28.529
17.950	28.459
18.000	28.389
18.050	28.320
18.100	28.250
18.150	28.181
18.200	28.111
18.250	28.042
18.300	27.973
18.350	27.904
18.400	27.836
18.450	27.767
18.500	27.699
18.550	27.631
18.600	27.563
18.650	27.495
18.700	27.427
18.750	27.359
18.800	27.292
18.850	27.225
18.900	27.158
18.950	27.091
19.000	27.024
19.050	26.957
19.100	26.891
19.150	26.824
19.200	26.758
19.250	26.692
19.300	26.626
19.350	26.560
19.400	26.495
19.450	26.429
19.500	26.364
19.550	26.299
19.600	26.234
19.650	26.169
19.700	26.104
19.750	26.039
19.800	25.975
19.850	25.911
19.900	25.847
19.950	25.783
20.000	25.719
20.050	25.655
20.100	25.592
20.150	25.528
20.200	25.465
20.250	25.402
20.300	25.339
20.350	25.276
20.400	25.214
20.450	25.151
20.500	25.089
20.550	25.026
20.600	24.964
20.650	24.903
20.700	24.841
20.750	24.779
20.800	24.718
20.850	24.656
20.900	24.595
20.950	24.534
21.000	24.473
21.050	24.413
21.100	24.352
21.150	24.292
21.200	24.231
21.250	24.171
21.300	24.111
21.350	24.051
21.400	23.991
21.450	23.932
21.500	23.872
21.550	23.813
21.600	23.754
21.650	23.695
21.700	23.636
21.750	23.577
21.800	23.519
21.850	23.460
21.900	23.402
21.950	23.344
22.000	23.286
22.050	23.228
22.100	23.170
22.150	23.112
22.200	23.055
22.250	22.998
22.300	22.940
22.350	22.883
22.400	22.827
22.450	22.770
22.500	22.713
22.550	22.657
22.600	22.600
22.650	22.544
22.700	22.488
22.750	22.432
22.800	22.376
22.850	22.320
22.900	22.265
22.950	22.209
23.000	22.154
23.050	22.099
23.100	22.044
23.150	21.989
23.200	21.934
23.250	21.880
23.300	21.825
23.350	21.771
23.400	21.717
23.450	21.663
23.500	21.609
23.550	21.555
23.600	21.501
23.650	21.448
23.700	21.394
23.750	21.341
23.800	21.288
23.850	21.235
23.900	21.182
23.950	21.129
24.000	21.077
24.050	21.024
24.100	20.972
24.150	20.919
24.200	20.867
24.250	20.815
24.300	20.763
24.350	20.712
24.400	20.660
24.450	20.609
24.500	20.557
24.550	20.506
24.600	20.455
24.650	20.404
24.700	20.353
24.750	20.302
24.800	20.252
24.850	20.201
24.900	20.151
24.950	20.101
25.000	20.051
25.050	20.001
25.100	19.951
25.150	19.901
25.200	19.851
25.250	19.802
25.300	19.752
25.350	19.703
25.400	19.654
25.450	19.605
25.500	19.556
25.550	19.507
25.600	19.459
25.650	19.410
25.700	19.362
25.750	19.314
25.800	19.265
25.850	19.217
25.900	19.169
25.950	19.122
26.000	19.074
26.050	19.026
26.100	18.979
26.150	18.932
26.200	18.884
26.250	18.837
26.300	18.790
26.350	18.743
26.400	18.697
26.450	18.650
26.500	18.603
26.550	18.557
26.600	18.511
26.650	18.465
26.700	18.419
26.750	18.373
26.800	18.327
26.850	18.281
26.900	18.235
26.950	18.190
27.000	18.145
27.050	18.099
27.100	18.054
27.150	18.009
27.200	17.964
27.250	17.919
27.300	17.875
27.350	17.830
27.400	17.786
27.450	17.741
27.500	17.697
27.550	17.653
27.600	17.609
27.650	17.565
27.700	17.521
27.750	17.477
27.800	17.434
27.850	17.390
27.900	17.347
27.950	17.303
28.000	17.260
28.050	17.217
28.100	17.174
28.150	17.131
28.200	17.089
28.250	17.046
28.300	17.003
28.350	16.961
28.400	16.919
28.450	16.876
28.500	16.834
28.550	16.792
28.600	16.750
28.650	16.709
28.700	16.667
28.750	16.625
28.800	16.584
28.850	16.542
28.900	16.501
28.950	16.460
29.000	16.419
29.050	16.378
29.100	16.337
29.150	16.296
29.200	16.256
29.250	16.215
29.300	16.175
29.350	16.134
29.400	16.094
29.450	16.054
29.500	16.014
29.550	15.974
29.600	15.934
29.650	15.894
29.700	15.854
29.750	15.815
29.800	15.775
29.850	15.736
29.900	15.697
29.950	15.657
30.000	15.618
30.050	15.579
30.100	15.541
30.150	15.502
30.200	15.463
30.250	15.424
30.300	15.386
30.350	15.348
30.400	15.309
30.450	15.271
30.500	15.233
30.550	15.195
30.600	15.157
30.650	15.119
30.700	15.081
30.750	15.044
30.800	15.006
30.850	14.969
30.900	14.931
30.950	14.894
31.000	14.857
31.050	14.820
31.100	14.783
31.150	14.746
31.200	14.709
31.250	14.672
31.300	14.636
31.350	14.599
31.400	14.563
31.450	14.526
31.500	14.490
31.550	14.454
31.600	14.418
31.650	14.382
31.700	14.346
31.750	14.310
31.800	14.274
31.850	14.239
31.900	14.203
31.950	14.168
32.000	14.132
32.050	14.097
32.100	14.062
32.150	14.027
32.200	13.992
32.250	13.957
32.300	13.922
32.350	13.887
32.400	13.853
32.450	13.818
32.500	13.784
32.550	13.749
32.600	13.715
32.650	13.681
32.700	13.646
32.750	13.612
32.800	13.578
32.850	13.544
32.900	13.511
32.950	13.477
33.000	13.443
33.050	13.410
33.100	13.376
33.150	13.343
33.200	13.310
33.250	13.276
33.300	13.243
33.350	13.210
33.400	13.177
33.450	13.144
33.500	13.111
33.550	13.079
33.600	13.046
33.650	13.013
33.700	12.981
33.750	12.949
33.800	12.916
33.850	12.884
33.900	12.852
33.950	12.820
34.000	12.788
34.050	12.756
34.100	12.724
34.150	12.692
34.200	12.660
34.250	12.629
34.300	12.597
34.350	12.566
34.400	12.534
34.450	12.503
34.500	12.472
34.550	12.441
34.600	12.410
34.650	12.379
34.700	12.348
34.750	12.317
34.800	12.286
34.850	12.256
34.900	12.225
34.950	12.195
35.000	12.164
35.050	12.134
35.100	12.103
35.150	12.073
35.200	12.043
35.250	12.013
35.300	11.983
35.350	11.953
35.400	11.923
35.450	11.893
35.500	11.864
35.550	11.834
35.600	11.805
35.650	11.775
35.700	11.746
35.750	11.716
35.800	11.687
35.850	11.658
35.900	11.629
35.950	11.600
36.000	11.571
36.050	11.542
36.100	11.513
36.150	11.484
36.200	11.456
36.250	11.427
36.300	11.399
36.350	11.370
36.400	11.342
36.450	11.313
36.500	11.285
36.550	11.257
36.600	11.229
36.650	11.201
36.700	11.173
36.750	11.145
36.800	11.117
36.850	11.089
36.900	11.062
36.950	11.034
37.000	11.007
37.050	10.979
37.100	10.952
37.150	10.924
37.200	10.897
37.250	10.870
37.300	10.843
37.350	10.816
37.400	10.789
37.450	10.762
37.500	10.735
37.550	10.708
37.600	10.681
37.650	10.655
37.700	10.628
37.750	10.601
37.800	10.575
37.850	10.549
37.900	10.522
37.950	10.496
38.000	10.470
38.050	10.444
38.100	10.418
38.150	10.392
38.200	10.366
38.250	10.340
38.300	10.314
38.350	10.288
38.400	10.262
38.450	10.237
38.500	10.211
38.550	10.186
38.600	10.160
38.650	10.135
38.700	10.110
38.750	10.084
38.800	10.059
38.850	10.034
38.900	10.009
38.950	9.984
39.000	9.959
39.050	9.934
39.100	9.909
39.150	9.885
39.200	9.860
39.250	9.835
39.300	9.811
39.350	9.786
39.400	9.762
39.450	9.738
39.500	9.713
39.550	9.689
39.600	9.665
39.650	9.641
39.700	9.617
39.750	9.593
39.800	9.569
39.850	9.545
39.900	9.521
39.950	9.497
40.000	9.473
40.050	9.450
40.100	9.426
40.150	9.403
40.200	9.379
40.250	9.356
40.300	9.332
40.350	9.309
40.400	9.286
40.450	9.263
40.500	9.240
40.550	9.216
40.600	9.193
40.650	9.171
40.700	9.148
40.750	9.125
40.800	9.102
40.850	9.079
40.900	9.057
40.950	9.034
41.000	9.011
41.050	8.989
41.100	8.966
41.150	8.944
41.200	8.922
41.250	8.899
41.300	8.877
41.350	8.855
41.400	8.833
41.450	8.811
41.500	8.789
41.550	8.767
41.600	8.745
41.650	8.723
41.700	8.701
41.750	8.680
41.800	8.658
41.850	8.636
41.900	8.615
41.950	8.593
42.000	8.572
42.050	8.551
42.100	8.529
42.150	8.508
42.200	8.487
42.250	8.465
42.300	8.444
42.350	8.423
42.400	8.402
42.450	8.381
42.500	8.360
42.550	8.339
42.600	8.319
42.650	8.298
42.700	8.277
42.750	8.256
42.800	8.236
42.850	8.215
42.900	8.195
42.950	8.174
43.000	8.154
43.050	8.134
43.100	8.113
43.150	8.093
43.200	8.073
43.250	8.053
43.300	8.032
43.350	8.012
43.400	7.992
43.450	7.972
43.500	7.953
43.550	7.933
43.600	7.913
43.650	7.893
43.700	7.873
43.750	7.854
43.800	7.834
43.850	7.815
43.900	7.795
43.950	7.776
44.000	7.756
44.050	7.737
44.100	7.718
44.150	7.698
44.200	7.679
44.250	7.660
44.300	7.641
44.350	7.622
44.400	7.603
44.450	7.584
44.500	7.565
44.550	7.546
44.600	7.527
44.650	7.508
44.700	7.489
44.750	7.471
44.800	7.452
44.850	7.433
44.900	7.415
44.950	7.396
45.000	7.378
45.050	7.360
45.100	7.341
45.150	7.323
45.200	7.305
45.250	7.286
45.300	7.268
45.350	7.250
45.400	7.232
45.450	7.214
45.500	7.196
45.550	7.178
45.600	7.160
45.650	7.142
45.700	7.124
45.750	7.106
45.800	7.089
45.850	7.071
45.900	7.053
45.950	7.036
46.000	7.018
46.050	7.001
46.100	6.983
46.150	6.966
46.200	6.948
46.250	6.931
46.300	6.914
46.350	6.896
46.400	6.879
46.450	6.862
46.500	6.845
46.550	6.828
46.600	6.811
46.650	6.794
46.700	6.777
46.750	6.760
46.800	6.743
46.850	6.726
46.900	6.709
46.950	6.693
47.000	6.676
47.050	6.659
47.100	6.643
47.150	6.626
47.200	6.609
47.250	6.593
47.300	6.576
47.350	6.560
47.400	6.544
47.450	6.527
47.500	6.511
47.550	6.495
47.600	6.479
47.650	6.462
47.700	6.446
47.750	6.430
47.800	6.414
47.850	6.398
47.900	6.382
47.950	6.366
48.000	6.350
48.050	6.334
48.100	6.319
48.150	6.303
48.200	6.287
48.250	6.271
48.300	6.256
48.350	6.240
48.400	6.225
48.450	6.209
48.500	6.193
48.550	6.178
48.600	6.163
48.650	6.147
48.700	6.132
48.750	6.117
48.800	6.101
48.850	6.086
48.900	6.071
48.950	6.056
49.000	6.041
49.050	6.025
49.100	6.010
49.150	5.995
49.200	5.980
49.250	5.966
49.300	5.951
49.350	5.936
49.400	5.921
49.450	5.906
49.500	5.891
49.550	5.877
49.600	5.862
49.650	5.847
49.700	5.833
49.750	5.818
49.800	5.804
49.850	5.789
49.900	5.775
49.950	5.760
50.000	5.746
50.050	5.732
50.100	5.717
50.150	5.703
50.200	5.689
50.250	5.675
50.300	5.660
50.350	5.646
50.400	5.632
50.450	5.618
50.500	5.604
50.550	5.590
50.600	5.576
50.650	5.562
50.700	5.548
50.750	5.534
50.800	5.521
50.850	5.507
50.900	5.493
50.950	5.479
51.000	5.466
51.050	5.452
51.100	5.438
51.150	5.425
51.200	5.411
51.250	5.398
51.300	5.384
51.350	5.371
51.400	5.357
51.450	5.344
51.500	5.331
51.550	5.317
51.600	5.304
51.650	5.291
51.700	5.278
51.750	5.265
51.800	5.251
51.850	5.238
51.900	5.225
51.950	5.212
52.000	5.199
52.050	5.186
52.100	5.173
52.150	5.160
52.200	5.147
52.250	5.135
52.300	5.122
52.350	5.109
52.400	5.096
52.450	5.083
52.500	5.071
52.550	5.058
52.600	5.045
52.650	5.033
52.700	5.020
52.750	5.008
52.800	4.995
52.850	4.983
52.900	4.970
52.950	4.958
53.000	4.946
53.050	4.933
53.100	4.921
53.150	4.909
53.200	4.896
53.250	4.884
53.300	4.872
53.350	4.860
53.400	4.848
53.450	4.836
53.500	4.823
53.550	4.811
53.600	4.799
53.650	4.787
53.700	4.775
53.750	4.764
53.800	4.752
53.850	4.740
53.900	4.728
53.950	4.716
54.000	4.704
54.050	4.693
54.100	4.681
54.150	4.669
54.200	4.658
54.250	4.646
54.300	4.634
54.350	4.623
54.400	4.611
54.450	4.600
54.500	4.588
54.550	4.577
54.600	4.565
54.650	4.554
54.700	4.543
54.750	4.531
54.800	4.520
54.850	4.509
54.900	4.497
54.950	4.486
55.000	4.475
55.050	4.464
55.100	4.453
55.150	4.442
55.200	4.430
55.250	4.419
55.300	4.408
55.350	4.397
55.400	4.386
55.450	4.375
55.500	4.364
55.550	4.354
55.600	4.343
55.650	4.332
55.700	4.321
55.750	4.310
55.800	4.299
55.850	4.289
55.900	4.278
55.950	4.267
56.000	4.257
56.050	4.246
56.100	4.235
56.150	4.225
56.200	4.214
56.250	4.204
56.300	4.193
56.350	4.183
56.400	4.172
56.450	4.162
56.500	4.152
56.550	4.141
56.600	4.131
56.650	4.121
56.700	4.110
56.750	4.100
56.800	4.090
56.850	4.080
56.900	4.069
56.950	4.059
57.000	4.049
57.050	4.039
57.100	4.029
57.150	4.019
57.200	4.009
57.250	3.999
57.300	3.989
57.350	3.979
57.400	3.969
57.450	3.959
57.500	3.949
57.550	3.939
57.600	3.929
57.650	3.920
57.700	3.910
57.750	3.900
57.800	3.890
57.850	3.881
57.900	3.871
57.950	3.861
58.000	3.852
58.050	3.842
58.100	3.832
58.150	3.823
58.200	3.813
58.250	3.804
58.300	3.794
58.350	3.785
58.400	3.775
58.450	3.766
58.500	3.757
58.550	3.747
58.600	3.738
58.650	3.728
58.700	3.719
58.750	3.710
58.800	3.701
58.850	3.691
58.900	3.682
58.950	3.673
59.000	3.664
59.050	3.655
59.100	3.646
59.150	3.636
59.200	3.627
59.250	3.618
59.300	3.609
59.350	3.600
59.400	3.591
59.450	3.582
59.500	3.573
59.550	3.564
59.600	3.555
59.650	3.547
59.700	3.538
59.750	3.529
59.800	3.520
59.850	3.511
59.900	3.503
59.950	3.494
60.000	3.485
60.050	3.476
60.100	3.468
60.150	3.459
60.200	3.450
60.250	3.442
60.300	3.433
60.350	3.425
60.400	3.416
60.450	3.408
60.500	3.399
60.550	3.391
60.600	3.382
60.650	3.374
60.700	3.365
60.750	3.357
60.800	3.348
60.850	3.340
60.900	3.332
60.950	3.323
61.000	3.315
61.050	3.307
61.100	3.299
61.150	3.290
61.200	3.282
61.250	3.274
61.300	3.266
61.350	3.258
61.400	3.249
61.450	3.241
61.500	3.233
61.550	3.225
61.600	3.217
61.650	3.209
61.700	3.201
61.750	3.193
61.800	3.185
61.850	3.177
61.900	3.169
61.950	3.161
62.000	3.153
62.050	3.146
62.100	3.138
62.150	3.130
62.200	3.122
62.250	3.114
62.300	3.106
62.350	3.099
62.400	3.091
62.450	3.083
62.500	3.076
62.550	3.068
62.600	3.060
62.650	3.053
62.700	3.045
62.750	3.037
62.800	3.030
62.850	3.022
62.900	3.015
62.950	3.007
63.000	3.000
63.050	2.992
63.100	2.985
63.150	2.977
63.200	2.970
63.250	2.962
63.300	2.955
63.350	2.948
63.400	2.940
63.450	2.933
63.500	2.926
63.550	2.918
63.600	2.911
63.650	2.904
63.700	2.896
63.750	2.889
63.800	2.882
63.850	2.875
63.900	2.868
63.950	2.860
64.000	2.853
64.050	2.846
64.100	2.839
64.150	2.832
64.200	2.825
64.250	2.818
64.300	2.811
64.350	2.804
64.400	2.797
64.450	2.790
64.500	2.783
64.550	2.776
64.600	2.769
64.650	2.762
64.700	2.755
64.750	2.748
64.800	2.741
64.850	2.735
64.900	2.728
64.950	2.721
65.000	2.714
65.050	2.707
65.100	2.701
65.150	2.694
65.200	2.687
65.250	2.680
65.300	2.674
65.350	2.667
65.400	2.660
65.450	2.654
65.500	2.647
65.550	2.641
65.600	2.634
65.650	2.627
65.700	2.621
65.750	2.614
65.800	2.608
65.850	2.601
65.900	2.595
65.950	2.588
66.000	2.582
66.050	2.575
66.100	2.569
66.150	2.563
66.200	2.556
66.250	2.550
66.300	2.543
66.350	2.537
66.400	2.531
66.450	2.524
66.500	2.518
66.550	2.512
66.600	2.506
66.650	2.499
66.700	2.493
66.750	2.487
66.800	2.481
66.850	2.474
66.900	2.468
66.950	2.462
67.000	2.456
67.050	2.450
67.100	2.444
67.150	2.438
67.200	2.431
67.250	2.425
67.300	2.419
67.350	2.413
67.400	2.407
67.450	2.401
67.500	2.395
67.550	2.389
67.600	2.383
67.650	2.377
67.700	2.371
67.750	2.366
67.800	2.360
67.850	2.354
67.900	2.348
67.950	2.342
68.000	2.336
68.050	2.330
68.100	2.324
68.150	2.319
68.200	2.313
68.250	2.307
68.300	2.301
68.350	2.296
68.400	2.290
68.450	2.284
68.500	2.278
68.550	2.273
68.600	2.267
68.650	2.261
68.700	2.256
68.750	2.250
68.800	2.245
68.850	2.239
68.900	2.233
68.950	2.228
69.000	2.222
69.050	2.217
69.100	2.211
69.150	2.206
69.200	2.200
69.250	2.195
69.300	2.189
69.350	2.184
69.400	2.178
69.450	2.173
69.500	2.167
69.550	2.162
69.600	2.157
69.650	2.151
69.700	2.146
69.750	2.140
69.800	2.135
69.850	2.130
69.900	2.124
69.950	2.119
70.000	2.114
70.050	2.109
70.100	2.103
70.150	2.098
70.200	2.093
70.250	2.088
70.300	2.082
70.350	2.077
70.400	2.072
70.450	2.067
70.500	2.062
70.550	2.056
70.600	2.051
70.650	2.046
70.700	2.041
70.750	2.036
70.800	2.031
70.850	2.026
70.900	2.021
70.950	2.016
71.000	2.011
71.050	2.006
71.100	2.001
71.150	1.996
71.200	1.991
71.250	1.986
71.300	1.981
71.350	1.976
71.400	1.971
71.450	1.966
71.500	1.961
71.550	1.956
71.600	1.951
71.650	1.946
71.700	1.942
71.750	1.937
71.800	1.932
71.850	1.927
71.900	1.922
71.950	1.917
72.000	1.913
72.050	1.908
72.100	1.903
72.150	1.898
72.200	1.894
72.250	1.889
72.300	1.884
72.350	1.879
72.400	1.875
72.450	1.870
72.500	1.865
72.550	1.861
72.600	1.856
72.650	1.851
72.700	1.847
72.750	1.842
72.800	1.838
72.850	1.833
72.900	1.828
72.950	1.824
73.000	1.819
73.050	1.815
73.100	1.810
73.150	1.806
73.200	1.801
73.250	1.797
73.300	1.792
73.350	1.788
73.400	1.783
73.450	1.779
73.500	1.774
73.550	1.770
73.600	1.766
73.650	1.761
73.700	1.757
73.750	1.752
73.800	1.748
73.850	1.744
73.900	1.739
73.950	1.735
74.000	1.731
74.050	1.726
74.100	1.722
74.150	1.718
74.200	1.713
74.250	1.709
74.300	1.705
74.350	1.701
74.400	1.696
74.450	1.692
74.500	1.688
74.550	1.684
74.600	1.679
74.650	1.675
74.700	1.671
74.750	1.667
74.800	1.663
74.850	1.659
74.900	1.654
74.950	1.650
75.000	1.646
75.050	1.642
75.100	1.638
75.150	1.634
75.200	1.630
75.250	1.626
75.300	1.622
75.350	1.618
75.400	1.614
75.450	1.610
75.500	1.606
75.550	1.602
75.600	1.598
75.650	1.594
75.700	1.590
75.750	1.586
75.800	1.582
75.850	1.578
75.900	1.574
75.950	1.570
76.000	1.566
76.050	1.562
76.100	1.558
76.150	1.554
76.200	1.550
76.250	1.547
76.300	1.543
76.350	1.539
76.400	1.535
76.450	1.531
76.500	1.527
76.550	1.523
76.600	1.520
76.650	1.516
76.700	1.512
76.750	1.508
76.800	1.505
76.850	1.501
76.900	1.497
76.950	1.493
77.000	1.490
77.050	1.486
77.100	1.482
77.150	1.478
77.200	1.475
77.250	1.471
77.300	1.467
77.350	1.464
77.400	1.460
77.450	1.456
77.500	1.453
77.550	1.449
77.600	1.446
77.650	1.442
77.700	1.438
77.750	1.435
77.800	1.431
77.850	1.428
77.900	1.424
77.950	1.420
78.000	1.417
78.050	1.413
78.100	1.410
78.150	1.406
78.200	1.403
78.250	1.399
78.300	1.396
78.350	1.392
78.400	1.389
78.450	1.385
78.500	1.382
78.550	1.378
78.600	1.375
78.650	1.372
78.700	1.368
78.750	1.365
78.800	1.361
78.850	1.358
78.900	1.355
78.950	1.351
79.000	1.348
79.050	1.344
79.100	1.341
79.150	1.338
79.200	1.334
79.250	1.331
79.300	1.328
79.350	1.324
79.400	1.321
79.450	1.318
79.500	1.315
79.550	1.311
79.600	1.308
79.650	1.305
79.700	1.301
79.750	1.298
79.800	1.295
79.850	1.292
79.900	1.289
79.950	1.285
80.000	1.282
80.050	1.279
80.100	1.276
80.150	1.273
80.200	1.269
80.250	1.266
80.300	1.263
80.350	1.260
80.400	1.257
80.450	1.254
80.500	1.250
80.550	1.247
80.600	1.244
80.650	1.241
80.700	1.238
80.750	1.235
80.800	1.232
80.850	1.229
80.900	1.226
80.950	1.223
81.000	1.220
81.050	1.217
81.100	1.213
81.150	1.210
81.200	1.207
81.250	1.204
81.300	1.201
81.350	1.198
81.400	1.195
81.450	1.192
81.500	1.189
81.550	1.186
81.600	1.184
81.650	1.181
81.700	1.178
81.750	1.175
81.800	1.172
81.850	1.169
81.900	1.166
81.950	1.163
82.000	1.160
82.050	1.157
82.100	1.154
82.150	1.151
82.200	1.149
82.250	1.146
82.300	1.143
82.350	1.140
82.400	1.137
82.450	1.134
82.500	1.131
82.550	1.129
82.600	1.126
82.650	1.123
82.700	1.120
82.750	1.117
82.800	1.115
82.850	1.112
82.900	1.109
82.950	1.106
83.000	1.104
83.050	1.101
83.100	1.098
83.150	1.095
83.200	1.093
83.250	1.090
83.300	1.087
83.350	1.084
83.400	1.082
83.450	1.079
83.500	1.076
83.550	1.074
83.600	1.071
83.650	1.068
83.700	1.066
83.750	1.063
83.800	1.060
83.850	1.058
83.900	1.055
83.950	1.052
84.000	1.050
84.050	1.047
84.100	1.044
84.150	1.042
84.200	1.039
84.250	1.037
84.300	1.034
84.350	1.031
84.400	1.029
84.450	1.026
84.500	1.024
84.550	1.021
84.600	1.019
84.650	1.016
84.700	1.014
84.750	1.011
84.800	1.009
84.850	1.006
84.900	1.004
84.950	1.001
85.000	0.998
85.050	0.996
85.100	0.994
85.150	0.991
85.200	0.989
85.250	0.986
85.300	0.984
85.350	0.981
85.400	0.979
85.450	0.976
85.500	0.974
85.550	0.971
85.600	0.969
85.650	0.967
85.700	0.964
85.750	0.962
85.800	0.959
85.850	0.957
85.900	0.955
85.950	0.952
86.000	0.950
86.050	0.947
86.100	0.945
86.150	0.943
86.200	0.940
86.250	0.938
86.300	0.936
86.350	0.933
86.400	0.931
86.450	0.929
86.500	0.926
86.550	0.924
86.600	0.922
86.650	0.919
86.700	0.917
86.750	0.915
86.800	0.913
86.850	0.910
86.900	0.908
86.950	0.906
87.000	0.903
87.050	0.901
87.100	0.899
87.150	0.897
87.200	0.894
87.250	0.892
87.300	0.890
87.350	0.888
87.400	0.886
87.450	0.883
87.500	0.881
87.550	0.879
87.600	0.877
87.650	0.875
87.700	0.872
87.750	0.870
87.800	0.868
87.850	0.866
87.900	0.864
87.950	0.862
88.000	0.859
88.050	0.857
88.100	0.855
88.150	0.853
88.200	0.851
88.250	0.849
88.300	0.847
88.350	0.845
88.400	0.842
88.450	0.840
88.500	0.838
88.550	0.836
88.600	0.834
88.650	0.832
88.700	0.830
88.750	0.828
88.800	0.826
88.850	0.824
88.900	0.822
88.950	0.820
89.000	0.817
89.050	0.815
89.100	0.813
89.150	0.811
89.200	0.809
89.250	0.807
89.300	0.805
89.350	0.803
89.400	0.801
89.450	0.799
89.500	0.797
89.550	0.795
89.600	0.793
89.650	0.791
89.700	0.789
89.750	0.787
89.800	0.785
89.850	0.783
89.900	0.782
89.950	0.780
90.000	0.778
90.050	0.776
90.100	0.774
90.150	0.772
90.200	0.770
90.250	0.768
90.300	0.766
90.350	0.764
90.400	0.762
90.450	0.760
90.500	0.758
90.550	0.757
90.600	0.755
90.650	0.753
90.700	0.751
90.750	0.749
90.800	0.747
90.850	0.745
90.900	0.743
90.950	0.742
91.000	0.740
91.050	0.738
91.100	0.736
91.150	0.734
91.200	0.732
91.250	0.731
91.300	0.729
91.350	0.727
91.400	0.725
91.450	0.723
91.500	0.721
91.550	0.720
91.600	0.718
91.650	0.716
91.700	0.714
91.750	0.712
91.800	0.711
91.850	0.709
91.900	0.707
91.950	0.705
92.000	0.704
92.050	0.702
92.100	0.700
92.150	0.698
92.200	0.697
92.250	0.695
92.300	0.693
92.350	0.691
92.400	0.690
92.450	0.688
92.500	0.686
92.550	0.685
92.600	0.683
92.650	0.681
92.700	0.679
92.750	0.678
92.800	0.676
92.850	0.674
92.900	0.673
92.950	0.671
93.000	0.669
93.050	0.668
93.100	0.666
93.150	0.664
93.200	0.663
93.250	0.661
93.300	0.659
93.350	0.658
93.400	0.656
93.450	0.654
93.500	0.653
93.550	0.651
93.600	0.650
93.650	0.648
93.700	0.646
93.750	0.645
93.800	0.643
93.850	0.641
93.900	0.640
93.950	0.638
94.000	0.637
94.050	0.635
94.100	0.633
94.150	0.632
94.200	0.630
94.250	0.629
94.300	0.627
94.350	0.626
94.400	0.624
94.450	0.623
94.500	0.621
94.550	0.619
94.600	0.618
94.650	0.616
94.700	0.615
94.750	0.613
94.800	0.612
94.850	0.610
94.900	0.609
94.950	0.607
95.000	0.606
95.050	0.604
95.100	0.603
95.150	0.601
95.200	0.600
95.250	0.598
95.300	0.597
95.350	0.595
95.400	0.594
95.450	0.592
95.500	0.591
95.550	0.589
95.600	0.588
95.650	0.586
95.700	0.585
95.750	0.583
95.800	0.582
95.850	0.580
95.900	0.579
95.950	0.578
96.000	0.576
96.050	0.575
96.100	0.573
96.150	0.572
96.200	0.570
96.250	0.569
96.300	0.568
96.350	0.566
96.400	0.565
96.450	0.563
96.500	0.562
96.550	0.560
96.600	0.559
96.650	0.558
96.700	0.556
96.750	0.555
96.800	0.553
96.850	0.552
96.900	0.551
96.950	0.549
97.000	0.548
97.050	0.547
97.100	0.545
97.150	0.544
97.200	0.543
97.250	0.541
97.300	0.540
97.350	0.538
97.400	0.537
97.450	0.536
97.500	0.534
97.550	0.533
97.600	0.532
97.650	0.530
97.700	0.529
97.750	0.528
97.800	0.526
97.850	0.525
97.900	0.524
97.950	0.523
98.000	0.521
98.050	0.520
98.100	0.519
98.150	0.517
98.200	0.516
98.250	0.515
98.300	0.514
98.350	0.512
98.400	0.511
98.450	0.510
98.500	0.508
98.550	0.507
98.600	0.506
98.650	0.505
98.700	0.503
98.750	0.502
98.800	0.501
98.850	0.500
98.900	0.498
98.950	0.497
99.000	0.496
99.050	0.495
99.100	0.493
99.150	0.492
99.200	0.491
99.250	0.490
99.300	0.488
99.350	0.487
99.400	0.486
99.450	0.485
99.500	0.484
99.550	0.482
99.600	0.481
99.650	0.480
99.700	0.479
99.750	0.478
99.800	0.476
99.850	0.475
99.900	0.474
99.950	0.473
100.000	0.472
