ATF	1.0
8	2     
"AcquisitionMode=Episodic Stimulation"
"Comment="
"YTop=1000.02"
"YBottom=-1000.02"
"SyncTimeUnits=5"
"SweepStartTimesMS=0.000"
"SignalsExported=IN 0"
"Signals="	"IN 0"
"Time (s)"	"Trace #1 (mV)"
0	-73.822
1e-4	-73.8525
2e-4	-73.8525
3e-4	-73.8831
4e-4	-73.8525
5e-4	-73.822
6e-4	-73.822
7e-4	-73.761
8e-4	-73.761
9e-4	-73.7915
1e-3	-73.7915
0.0011	-73.761
0.0012	-73.7305
0.0013	-73.761
0.0014	-73.7305
0.0015	-73.7305
0.0016	-73.761
0.0017	-73.6694
0.0018	-73.761
0.0019	-73.7
0.002	-73.761
0.0021	-73.822
0.0022	-73.7915
0.0023	-73.7305
0.0024	-73.7915
0.0025	-73.761
0.0026	-73.761
0.0027	-73.822
0.0028	-73.761
0.0029	-73.7915
0.003	-73.8525
0.0031	-73.822
0.0032	-73.822
0.0033	-73.7915
0.0034	-73.761
0.0035	-73.7915
0.0036	-73.761
0.0037	-73.761
0.0038	-73.7305
0.0039	-73.822
0.004	-73.761
0.0041	-73.761
0.0042	-73.761
0.0043	-73.7915
0.0044	-73.761
0.0045	-73.7305
0.0046	-73.761
0.0047	-73.7
0.0048	-73.7
0.0049	-73.761
0.005	-73.7915
0.0051	-73.7305
0.0052	-73.7915
0.0053	-73.7915
0.0054	-73.7915
0.0055	-73.7305
0.0056	-73.822
0.0057	-73.822
0.0058	-73.822
0.0059	-73.8831
0.006	-73.8525
0.0061	-73.8831
0.0062	-73.9136
0.0063	-73.8831
0.0064	-73.9441
0.0065	-73.9136
0.0066	-73.8831
0.0067	-73.9136
0.0068	-73.9441
0.0069	-73.8831
0.007	-73.8831
0.0071	-73.9136
0.0072	-73.8525
0.0073	-73.9441
0.0074	-73.9746
0.0075	-73.9136
0.0076	-73.9136
0.0077	-73.9136
0.0078	-73.8525
0.0079	-73.9136
0.008	-73.8831
0.0081	-73.8525
0.0082	-73.8831
0.0083	-73.8525
0.0084	-73.822
0.0085	-73.9136
0.0086	-73.9136
0.0087	-73.8831
0.0088	-73.8831
0.0089	-73.822
0.009	-73.9136
0.0091	-73.9136
0.0092	-73.8831
0.0093	-73.8831
0.0094	-73.9136
0.0095	-73.8831
0.0096	-73.8525
0.0097	-73.8831
0.0098	-73.8831
0.0099	-73.8831
0.01	-73.9441
0.0101	-73.8525
0.0102	-73.8831
0.0103	-73.9136
0.0104	-73.8831
0.0105	-73.9441
0.0106	-73.9441
0.0107	-73.9441
0.0108	-73.9441
0.0109	-73.9441
0.011	-73.9441
0.0111	-73.9746
0.0112	-73.9441
0.0113	-73.9441
0.0114	-73.9441
0.0115	-73.9136
0.0116	-73.8831
0.0117	-73.9746
0.0118	-73.9136
0.0119	-73.9441
0.012	-74.0051
0.0121	-74.0051
0.0122	-74.0356
0.0123	-74.0051
0.0124	-74.0356
0.0125	-74.0356
0.0126	-74.0967
0.0127	-74.0662
0.0128	-74.0967
0.0129	-74.1272
0.013	-74.0662
0.0131	-74.0662
0.0132	-74.0662
0.0133	-74.0356
0.0134	-74.0662
0.0135	-74.0967
0.0136	-74.0662
0.0137	-74.0356
0.0138	-74.0356
0.0139	-74.0051
0.014	-74.0662
0.0141	-73.9746
0.0142	-74.0051
0.0143	-74.0356
0.0144	-74.0051
0.0145	-74.0051
0.0146	-74.0051
0.0147	-74.0662
0.0148	-74.0051
0.0149	-74.0662
0.015	-74.0356
0.0151	-74.0356
0.0152	-74.0662
0.0153	-74.0356
0.0154	-74.0051
0.0155	-74.0356
0.0156	-74.0051
0.0157	-74.0051
0.0158	-74.0662
0.0159	-74.0662
0.016	-74.0051
0.0161	-73.9746
0.0162	-73.9441
0.0163	-74.0051
0.0164	-74.0051
0.0165	-73.9441
0.0166	-73.9441
0.0167	-74.0051
0.0168	-73.9746
0.0169	-73.9441
0.017	-73.9746
0.0171	-73.8831
0.0172	-73.8831
0.0173	-73.9441
0.0174	-73.9441
0.0175	-73.9441
0.0176	-73.9441
0.0177	-73.9441
0.0178	-73.9746
0.0179	-73.9746
0.018	-73.9746
0.0181	-73.9441
0.0182	-73.9441
0.0183	-73.9441
0.0184	-73.9441
0.0185	-73.9441
0.0186	-73.9136
0.0187	-73.9746
0.0188	-73.9441
0.0189	-73.9136
0.019	-73.9441
0.0191	-73.9746
0.0192	-73.9441
0.0193	-73.9441
0.0194	-73.9441
0.0195	-73.9136
0.0196	-73.9746
0.0197	-73.9746
0.0198	-74.0051
0.0199	-74.0356
0.02	-74.0051
0.0201	-74.0051
0.0202	-74.0051
0.0203	-74.0051
0.0204	-73.9746
0.0205	-73.9746
0.0206	-73.9746
0.0207	-73.9441
0.0208	-74.0051
0.0209	-73.9136
0.021	-73.9136
0.0211	-73.9746
0.0212	-73.9441
0.0213	-73.9441
0.0214	-73.9441
0.0215	-73.9441
0.0216	-73.9746
0.0217	-73.9746
0.0218	-73.9746
0.0219	-73.9746
0.022	-73.9441
0.0221	-73.9746
0.0222	-73.9746
0.0223	-73.9746
0.0224	-73.9746
0.0225	-74.0051
0.0226	-73.9746
0.0227	-73.9746
0.0228	-74.0356
0.0229	-74.0356
0.023	-74.0051
0.0231	-74.0967
0.0232	-74.0051
0.0233	-74.0051
0.0234	-74.0662
0.0235	-74.0051
0.0236	-74.0051
0.0237	-74.0662
0.0238	-74.0051
0.0239	-74.0051
0.024	-74.0356
0.0241	-74.0356
0.0242	-74.0662
0.0243	-74.0356
0.0244	-74.0662
0.0245	-74.0967
0.0246	-74.0967
0.0247	-74.0662
0.0248	-74.0356
0.0249	-74.0662
0.025	-74.0356
0.0251	-74.0967
0.0252	-74.0662
0.0253	-74.0356
0.0254	-74.1272
0.0255	-74.0967
0.0256	-74.0967
0.0257	-74.0967
0.0258	-74.0356
0.0259	-74.0662
0.026	-74.1272
0.0261	-74.0967
0.0262	-74.0662
0.0263	-74.0967
0.0264	-73.9746
0.0265	-74.0662
0.0266	-74.0967
0.0267	-74.0967
0.0268	-74.0662
0.0269	-74.1272
0.027	-74.0967
0.0271	-74.0662
0.0272	-74.0662
0.0273	-74.0967
0.0274	-74.0662
0.0275	-74.0967
0.0276	-74.0356
0.0277	-74.0662
0.0278	-74.0356
0.0279	-74.0051
0.028	-74.0051
0.0281	-74.0356
0.0282	-74.0662
0.0283	-74.0662
0.0284	-74.0662
0.0285	-74.0051
0.0286	-73.9746
0.0287	-74.0051
0.0288	-73.9746
0.0289	-74.0356
0.029	-74.0051
0.0291	-74.0051
0.0292	-74.0662
0.0293	-74.0356
0.0294	-74.0051
0.0295	-74.0662
0.0296	-74.0356
0.0297	-74.0356
0.0298	-74.0967
0.0299	-74.0662
0.03	-73.9746
0.0301	-74.0662
0.0302	-74.0051
0.0303	-74.0356
0.0304	-74.0662
0.0305	-74.0051
0.0306	-73.9746
0.0307	-74.0051
0.0308	-73.9746
0.0309	-73.9746
0.031	-73.9441
0.0311	-73.9441
0.0312	-73.9441
0.0313	-73.9441
0.0314	-73.8831
0.0315	-73.9441
0.0316	-73.8831
0.0317	-73.8525
0.0318	-73.9136
0.0319	-73.9136
0.032	-73.8525
0.0321	-73.9136
0.0322	-73.9136
0.0323	-73.9441
0.0324	-73.9746
0.0325	-73.9441
0.0326	-73.9136
0.0327	-73.9441
0.0328	-73.9441
0.0329	-73.9136
0.033	-74.0051
0.0331	-73.9441
0.0332	-73.9136
0.0333	-73.9441
0.0334	-73.9136
0.0335	-73.9746
0.0336	-73.9746
0.0337	-73.8831
0.0338	-73.9136
0.0339	-73.9746
0.034	-73.9136
0.0341	-73.9136
0.0342	-73.9136
0.0343	-73.8831
0.0344	-73.9136
0.0345	-73.9136
0.0346	-73.9136
0.0347	-73.9136
0.0348	-73.8831
0.0349	-73.8831
0.035	-73.8831
0.0351	-73.8525
0.0352	-73.8831
0.0353	-73.9136
0.0354	-73.8525
0.0355	-73.8831
0.0356	-73.9136
0.0357	-73.8831
0.0358	-73.8831
0.0359	-73.9136
0.036	-73.8831
0.0361	-73.8831
0.0362	-73.9441
0.0363	-73.8525
0.0364	-73.7915
0.0365	-73.8525
0.0366	-73.8525
0.0367	-73.822
0.0368	-73.8831
0.0369	-73.822
0.037	-73.8831
0.0371	-73.8831
0.0372	-73.822
0.0373	-73.822
0.0374	-73.822
0.0375	-73.7915
0.0376	-73.7915
0.0377	-73.822
0.0378	-73.7915
0.0379	-73.761
0.038	-73.822
0.0381	-73.761
0.0382	-73.822
0.0383	-73.822
0.0384	-73.822
0.0385	-73.8525
0.0386	-73.8831
0.0387	-73.8525
0.0388	-73.8525
0.0389	-73.8831
0.039	-73.8831
0.0391	-73.9136
0.0392	-73.8831
0.0393	-73.8831
0.0394	-73.9441
0.0395	-73.9136
0.0396	-73.8831
0.0397	-73.9136
0.0398	-73.8831
0.0399	-73.8831
0.04	-73.9441
0.0401	-73.8831
0.0402	-73.8525
0.0403	-73.9441
0.0404	-73.8831
0.0405	-73.8831
0.0406	-73.9441
0.0407	-73.8831
0.0408	-73.8831
0.0409	-73.9441
0.041	-73.8831
0.0411	-73.8831
0.0412	-73.9136
0.0413	-73.822
0.0414	-73.9136
0.0415	-73.9441
0.0416	-73.8525
0.0417	-73.9441
0.0418	-73.9136
0.0419	-73.9136
0.042	-73.9746
0.0421	-73.9136
0.0422	-73.9136
0.0423	-73.9441
0.0424	-73.9136
0.0425	-73.9136
0.0426	-74.0051
0.0427	-73.9136
0.0428	-73.9136
0.0429	-73.9441
0.043	-73.8525
0.0431	-73.9136
0.0432	-73.9746
0.0433	-73.9746
0.0434	-73.9746
0.0435	-74.0051
0.0436	-73.9746
0.0437	-73.9441
0.0438	-74.0356
0.0439	-73.9136
0.044	-73.9441
0.0441	-73.9441
0.0442	-73.9441
0.0443	-73.9441
0.0444	-73.9441
0.0445	-73.8831
0.0446	-73.9441
0.0447	-73.9136
0.0448	-73.9441
0.0449	-73.9441
0.045	-73.8831
0.0451	-73.8831
0.0452	-73.9746
0.0453	-73.9441
0.0454	-73.9441
0.0455	-73.9746
0.0456	-73.9746
0.0457	-73.9441
0.0458	-74.0356
0.0459	-74.0051
0.046	-74.0051
0.0461	-74.0356
0.0462	-74.0662
0.0463	-74.0356
0.0464	-74.0662
0.0465	-73.9746
0.0466	-73.9746
0.0467	-74.0662
0.0468	-74.0662
0.0469	-73.9746
0.047	-74.0051
0.0471	-73.9441
0.0472	-73.9441
0.0473	-74.0051
0.0474	-74.0051
0.0475	-73.9746
0.0476	-73.9441
0.0477	-73.9441
0.0478	-73.9441
0.0479	-73.9746
0.048	-73.9441
0.0481	-73.9441
0.0482	-73.9746
0.0483	-73.9441
0.0484	-73.9136
0.0485	-73.9136
0.0486	-73.9441
0.0487	-73.9746
0.0488	-73.9441
0.0489	-73.9441
0.049	-74.0051
0.0491	-74.0051
0.0492	-73.9441
0.0493	-73.9441
0.0494	-73.9441
0.0495	-73.9136
0.0496	-73.9746
0.0497	-73.9136
0.0498	-73.9136
0.0499	-74.0356
0.05	-73.9441
0.0501	-73.8831
0.0502	-73.9441
0.0503	-73.8831
0.0504	-73.8525
0.0505	-73.9746
0.0506	-73.9136
0.0507	-73.8831
0.0508	-73.9136
0.0509	-73.9441
0.051	-73.9441
0.0511	-73.9136
0.0512	-73.8831
0.0513	-73.8525
0.0514	-73.8831
0.0515	-73.8831
0.0516	-73.8831
0.0517	-73.9136
0.0518	-73.8831
0.0519	-73.8525
0.052	-73.9136
0.0521	-73.8525
0.0522	-73.9136
0.0523	-73.8525
0.0524	-73.8525
0.0525	-73.8831
0.0526	-73.8525
0.0527	-73.822
0.0528	-73.9136
0.0529	-73.8831
0.053	-73.8525
0.0531	-73.8831
0.0532	-73.8525
0.0533	-73.822
0.0534	-73.8831
0.0535	-73.8831
0.0536	-73.8525
0.0537	-73.8831
0.0538	-73.8525
0.0539	-73.822
0.054	-73.8831
0.0541	-73.8525
0.0542	-73.8525
0.0543	-73.9136
0.0544	-73.9136
0.0545	-73.822
0.0546	-73.8831
0.0547	-73.8831
0.0548	-73.8525
0.0549	-73.822
0.055	-73.8525
0.0551	-73.8525
0.0552	-73.9136
0.0553	-73.8525
0.0554	-73.8831
0.0555	-73.8831
0.0556	-73.8831
0.0557	-73.9136
0.0558	-73.9441
0.0559	-73.9136
0.056	-73.9441
0.0561	-73.9441
0.0562	-73.9441
0.0563	-73.9746
0.0564	-73.9441
0.0565	-73.9136
0.0566	-73.9746
0.0567	-73.9441
0.0568	-73.9746
0.0569	-73.9441
0.057	-73.8831
0.0571	-73.8831
0.0572	-73.9441
0.0573	-73.9136
0.0574	-73.9441
0.0575	-73.9441
0.0576	-73.9136
0.0577	-73.8831
0.0578	-73.9746
0.0579	-73.9441
0.058	-73.9441
0.0581	-73.9746
0.0582	-73.8831
0.0583	-73.9441
0.0584	-74.0051
0.0585	-73.9441
0.0586	-73.9746
0.0587	-73.9746
0.0588	-73.9746
0.0589	-73.9441
0.059	-73.9746
0.0591	-73.9441
0.0592	-73.9746
0.0593	-73.9136
0.0594	-73.9441
0.0595	-73.9441
0.0596	-73.8831
0.0597	-73.9136
0.0598	-73.9441
0.0599	-73.8831
0.06	-73.8831
0.0601	-73.9441
0.0602	-73.9746
0.0603	-73.9441
0.0604	-73.9746
0.0605	-73.9441
0.0606	-73.9441
0.0607	-73.9746
0.0608	-73.9136
0.0609	-73.9441
0.061	-73.9441
0.0611	-73.9136
0.0612	-73.9136
0.0613	-73.9136
0.0614	-73.9136
0.0615	-73.9136
0.0616	-73.9136
0.0617	-73.9136
0.0618	-73.9136
0.0619	-73.9441
0.062	-73.9746
0.0621	-73.9441
0.0622	-73.9441
0.0623	-73.9136
0.0624	-73.9746
0.0625	-73.9136
0.0626	-73.9136
0.0627	-73.9746
0.0628	-73.9136
0.0629	-73.9136
0.063	-74.0051
0.0631	-73.9441
0.0632	-73.9441
0.0633	-74.0051
0.0634	-73.9441
0.0635	-73.9136
0.0636	-73.9746
0.0637	-73.8831
0.0638	-73.9136
0.0639	-73.9746
0.064	-73.9136
0.0641	-73.822
0.0642	-73.9441
0.0643	-73.9441
0.0644	-73.8831
0.0645	-73.9441
0.0646	-73.9136
0.0647	-73.9136
0.0648	-73.9441
0.0649	-73.8525
0.065	-73.8831
0.0651	-73.9136
0.0652	-73.8525
0.0653	-73.8831
0.0654	-73.9746
0.0655	-73.9441
0.0656	-73.9746
0.0657	-73.8831
0.0658	-73.9136
0.0659	-73.9746
0.066	-73.9441
0.0661	-73.9136
0.0662	-73.9441
0.0663	-73.9441
0.0664	-73.9136
0.0665	-73.9136
0.0666	-73.9441
0.0667	-73.8831
0.0668	-74.0356
0.0669	-73.9136
0.067	-73.8525
0.0671	-73.9746
0.0672	-73.9136
0.0673	-73.9441
0.0674	-74.0051
0.0675	-73.9136
0.0676	-73.9441
0.0677	-73.9746
0.0678	-73.9746
0.0679	-73.9136
0.068	-73.9441
0.0681	-73.9441
0.0682	-73.9441
0.0683	-73.9746
0.0684	-73.9441
0.0685	-73.9746
0.0686	-73.8831
0.0687	-73.8831
0.0688	-73.8831
0.0689	-73.8831
0.069	-73.8525
0.0691	-73.8831
0.0692	-73.8831
0.0693	-73.8525
0.0694	-73.8525
0.0695	-73.7915
0.0696	-73.7915
0.0697	-73.8831
0.0698	-73.822
0.0699	-73.7915
0.07	-73.9441
0.0701	-73.7915
0.0702	-73.822
0.0703	-73.8831
0.0704	-73.8525
0.0705	-73.761
0.0706	-73.8525
0.0707	-73.7915
0.0708	-73.822
0.0709	-73.822
0.071	-73.7915
0.0711	-73.822
0.0712	-73.822
0.0713	-73.822
0.0714	-73.822
0.0715	-73.7915
0.0716	-73.7915
0.0717	-73.7915
0.0718	-73.822
0.0719	-73.761
0.072	-73.761
0.0721	-73.822
0.0722	-73.822
0.0723	-73.8831
0.0724	-73.8525
0.0725	-73.8525
0.0726	-73.8831
0.0727	-73.8831
0.0728	-73.8831
0.0729	-73.9136
0.073	-73.8831
0.0731	-73.8525
0.0732	-73.9136
0.0733	-73.8525
0.0734	-73.8831
0.0735	-73.8525
0.0736	-73.822
0.0737	-73.8525
0.0738	-73.8831
0.0739	-73.7915
0.074	-73.822
0.0741	-73.822
0.0742	-73.7915
0.0743	-73.822
0.0744	-73.8525
0.0745	-73.761
0.0746	-73.8525
0.0747	-73.8525
0.0748	-73.7915
0.0749	-73.7915
0.075	-73.822
0.0751	-73.7915
0.0752	-73.822
0.0753	-73.8525
0.0754	-73.822
0.0755	-73.8525
0.0756	-73.8831
0.0757	-73.8831
0.0758	-73.8525
0.0759	-73.7915
0.076	-73.822
0.0761	-73.9136
0.0762	-73.8525
0.0763	-73.8525
0.0764	-73.9136
0.0765	-73.9136
0.0766	-73.8831
0.0767	-73.8831
0.0768	-73.8525
0.0769	-73.8831
0.077	-73.9746
0.0771	-73.9441
0.0772	-73.9136
0.0773	-73.9136
0.0774	-73.9136
0.0775	-73.8831
0.0776	-73.9441
0.0777	-73.9136
0.0778	-73.8831
0.0779	-73.8831
0.078	-73.8525
0.0781	-73.8525
0.0782	-73.9136
0.0783	-73.8831
0.0784	-73.9136
0.0785	-73.9441
0.0786	-73.8831
0.0787	-73.9136
0.0788	-73.9441
0.0789	-73.9441
0.079	-73.9746
0.0791	-73.9746
0.0792	-73.9441
0.0793	-74.0051
0.0794	-73.9746
0.0795	-73.9441
0.0796	-74.0051
0.0797	-73.9746
0.0798	-73.9441
0.0799	-74.0051
0.08	-73.8831
0.0801	-73.9136
0.0802	-73.9441
0.0803	-73.9441
0.0804	-73.9136
0.0805	-73.9136
0.0806	-73.8831
0.0807	-73.8831
0.0808	-73.9136
0.0809	-73.9441
0.081	-73.9441
0.0811	-73.9746
0.0812	-73.9136
0.0813	-73.9136
0.0814	-73.9746
0.0815	-73.9136
0.0816	-73.8525
0.0817	-73.9136
0.0818	-73.8831
0.0819	-73.9441
0.082	-73.9441
0.0821	-73.8831
0.0822	-73.9136
0.0823	-73.9441
0.0824	-73.9136
0.0825	-73.8831
0.0826	-73.9136
0.0827	-73.9136
0.0828	-73.9136
0.0829	-73.9746
0.083	-73.9136
0.0831	-73.9441
0.0832	-73.9136
0.0833	-73.8831
0.0834	-73.9136
0.0835	-73.8831
0.0836	-73.8831
0.0837	-73.8831
0.0838	-73.8831
0.0839	-73.822
0.084	-73.8831
0.0841	-73.8831
0.0842	-73.822
0.0843	-73.8525
0.0844	-73.8525
0.0845	-73.822
0.0846	-73.822
0.0847	-73.8831
0.0848	-73.8831
0.0849	-73.8525
0.085	-73.822
0.0851	-73.822
0.0852	-73.822
0.0853	-73.7915
0.0854	-73.7915
0.0855	-73.822
0.0856	-73.761
0.0857	-73.8525
0.0858	-73.7915
0.0859	-73.761
0.086	-73.7915
0.0861	-73.8831
0.0862	-73.8525
0.0863	-73.8525
0.0864	-73.822
0.0865	-73.822
0.0866	-73.8831
0.0867	-73.8525
0.0868	-73.822
0.0869	-73.8831
0.087	-73.7915
0.0871	-73.822
0.0872	-73.9136
0.0873	-73.7915
0.0874	-73.822
0.0875	-73.822
0.0876	-73.761
0.0877	-73.761
0.0878	-73.8525
0.0879	-73.822
0.088	-73.761
0.0881	-73.8525
0.0882	-73.7915
0.0883	-73.761
0.0884	-73.7915
0.0885	-73.822
0.0886	-73.7915
0.0887	-73.822
0.0888	-73.822
0.0889	-73.7915
0.089	-73.8831
0.0891	-73.7915
0.0892	-73.761
0.0893	-73.7915
0.0894	-73.7915
0.0895	-73.822
0.0896	-73.761
0.0897	-73.7915
0.0898	-73.8525
0.0899	-73.822
0.09	-73.8525
0.0901	-73.822
0.0902	-73.7915
0.0903	-73.7915
0.0904	-73.8525
0.0905	-73.822
0.0906	-73.822
0.0907	-73.8831
0.0908	-73.761
0.0909	-73.8525
0.091	-73.822
0.0911	-73.7915
0.0912	-73.7915
0.0913	-73.8831
0.0914	-73.7915
0.0915	-73.7915
0.0916	-73.822
0.0917	-73.822
0.0918	-73.7915
0.0919	-73.7915
0.092	-73.761
0.0921	-73.7915
0.0922	-73.8831
0.0923	-73.8525
0.0924	-73.822
0.0925	-73.7915
0.0926	-73.7915
0.0927	-73.761
0.0928	-73.7915
0.0929	-73.7305
0.093	-73.7
0.0931	-73.7305
0.0932	-73.7305
0.0933	-73.761
0.0934	-73.7305
0.0935	-73.7915
0.0936	-73.7915
0.0937	-73.7915
0.0938	-73.7915
0.0939	-73.822
0.094	-73.761
0.0941	-73.7305
0.0942	-73.7915
0.0943	-73.761
0.0944	-73.7305
0.0945	-73.761
0.0946	-73.6694
0.0947	-73.7305
0.0948	-73.7915
0.0949	-73.761
0.095	-73.7
0.0951	-73.761
0.0952	-73.7
0.0953	-73.761
0.0954	-73.761
0.0955	-73.7
0.0956	-73.7
0.0957	-73.822
0.0958	-73.761
0.0959	-73.822
0.096	-73.761
0.0961	-73.761
0.0962	-73.822
0.0963	-73.822
0.0964	-73.7915
0.0965	-73.822
0.0966	-73.822
0.0967	-73.822
0.0968	-73.822
0.0969	-73.761
0.097	-73.7915
0.0971	-73.7915
0.0972	-73.761
0.0973	-73.7305
0.0974	-73.7305
0.0975	-73.6694
0.0976	-73.7
0.0977	-73.7915
0.0978	-73.7
0.0979	-73.7
0.098	-73.761
0.0981	-73.6694
0.0982	-73.6694
0.0983	-73.761
0.0984	-73.7305
0.0985	-73.7
0.0986	-73.8525
0.0987	-73.761
0.0988	-73.761
0.0989	-73.822
0.099	-73.7915
0.0991	-73.761
0.0992	-73.7915
0.0993	-73.7305
0.0994	-73.761
0.0995	-73.761
0.0996	-73.761
0.0997	-73.7
0.0998	-73.7305
0.0999	-73.7305
0.1	-73.761
0.1001	-73.7
0.1002	-73.6389
0.1003	-73.6389
0.1004	-73.7
0.1005	-73.7
0.1006	-73.7305
0.1007	-73.6389
0.1008	-73.6389
0.1009	-73.7
0.101	-73.6694
0.1011	-73.7
0.1012	-73.7305
0.1013	-73.6389
0.1014	-73.6694
0.1015	-73.7305
0.1016	-73.6694
0.1017	-73.6389
0.1018	-73.7305
0.1019	-73.6389
0.102	-73.6389
0.1021	-73.7
0.1022	-73.7
0.1023	-73.7
0.1024	-73.7305
0.1025	-73.7
0.1026	-73.6694
0.1027	-73.7
0.1028	-73.6694
0.1029	-73.7
0.103	-73.7305
0.1031	-73.7305
0.1032	-73.7
0.1033	-73.7915
0.1034	-73.7
0.1035	-73.7305
0.1036	-73.7305
0.1037	-73.7
0.1038	-73.7305
0.1039	-73.7915
0.104	-73.7305
0.1041	-73.761
0.1042	-73.7305
0.1043	-73.7305
0.1044	-73.7305
0.1045	-73.6694
0.1046	-73.6389
0.1047	-73.7
0.1048	-73.6694
0.1049	-73.6389
0.105	-73.7
0.1051	-73.6084
0.1052	-73.6694
0.1053	-73.761
0.1054	-73.7
0.1055	-73.6694
0.1056	-73.7305
0.1057	-73.6694
0.1058	-73.6694
0.1059	-73.7
0.106	-73.7
0.1061	-73.7305
0.1062	-73.7
0.1063	-73.7305
0.1064	-73.761
0.1065	-73.7305
0.1066	-73.7305
0.1067	-73.761
0.1068	-73.7
0.1069	-73.7
0.107	-73.761
0.1071	-73.7
0.1072	-73.7
0.1073	-73.7
0.1074	-73.7
0.1075	-73.6694
0.1076	-73.7305
0.1077	-73.7
0.1078	-73.7
0.1079	-73.6694
0.108	-73.7
0.1081	-73.6694
0.1082	-73.761
0.1083	-73.7
0.1084	-73.7
0.1085	-73.761
0.1086	-73.7305
0.1087	-73.7915
0.1088	-73.761
0.1089	-73.7
0.109	-73.6694
0.1091	-73.761
0.1092	-73.761
0.1093	-73.761
0.1094	-73.7305
0.1095	-73.7
0.1096	-73.761
0.1097	-73.761
0.1098	-73.761
0.1099	-73.761
0.11	-73.761
0.1101	-73.7305
0.1102	-73.7915
0.1103	-73.761
0.1104	-73.7305
0.1105	-73.761
0.1106	-73.7305
0.1107	-73.7
0.1108	-73.7305
0.1109	-73.7305
0.111	-73.6694
0.1111	-73.761
0.1112	-73.7
0.1113	-73.7
0.1114	-73.6694
0.1115	-73.7
0.1116	-73.6694
0.1117	-73.7305
0.1118	-73.7
0.1119	-73.6694
0.112	-73.7305
0.1121	-73.7
0.1122	-73.7
0.1123	-73.7305
0.1124	-73.7
0.1125	-73.7
0.1126	-73.7915
0.1127	-73.7
0.1128	-73.761
0.1129	-73.761
0.113	-73.761
0.1131	-73.761
0.1132	-73.7915
0.1133	-73.761
0.1134	-73.7305
0.1135	-73.761
0.1136	-73.7305
0.1137	-73.7305
0.1138	-73.761
0.1139	-73.7305
0.114	-73.761
0.1141	-73.761
0.1142	-73.761
0.1143	-73.761
0.1144	-73.7305
0.1145	-73.7305
0.1146	-73.7
0.1147	-73.7305
0.1148	-73.761
0.1149	-73.761
0.115	-73.7305
0.1151	-73.7305
0.1152	-73.761
0.1153	-73.7
0.1154	-73.761
0.1155	-73.822
0.1156	-73.761
0.1157	-72.9065
0.1158	-72.6624
0.1159	-72.3877
0.116	-72.1741
0.1161	-71.991
0.1162	-71.7773
0.1163	-71.5637
0.1164	-71.4417
0.1165	-71.228
0.1166	-71.1365
0.1167	-70.9839
0.1168	-70.8313
0.1169	-70.8008
0.117	-70.6482
0.1171	-70.5261
0.1172	-70.4651
0.1173	-70.343
0.1174	-70.1904
0.1175	-70.1599
0.1176	-70.0073
0.1177	-69.9463
0.1178	-69.8853
0.1179	-69.7021
0.118	-69.6106
0.1181	-69.5801
0.1182	-69.397
0.1183	-69.3359
0.1184	-69.3054
0.1185	-69.2139
0.1186	-69.1528
0.1187	-69.1223
0.1188	-69.0308
0.1189	-68.9087
0.119	-68.8477
0.1191	-68.7866
0.1192	-68.7256
0.1193	-68.6646
0.1194	-68.6035
0.1195	-68.512
0.1196	-68.5425
0.1197	-68.4204
0.1198	-68.3594
0.1199	-68.3594
0.12	-68.2068
0.1201	-68.1763
0.1202	-68.1152
0.1203	-68.0847
0.1204	-68.0237
0.1205	-67.9321
0.1206	-67.8711
0.1207	-67.8406
0.1208	-67.8101
0.1209	-67.688
0.121	-67.688
0.1211	-67.627
0.1212	-67.5659
0.1213	-67.5354
0.1214	-67.4438
0.1215	-67.3828
0.1216	-67.3523
0.1217	-67.3218
0.1218	-67.3218
0.1219	-67.2913
0.122	-67.1997
0.1221	-67.1997
0.1222	-67.2302
0.1223	-67.1082
0.1224	-67.0471
0.1225	-67.0471
0.1226	-66.9556
0.1227	-66.925
0.1228	-66.925
0.1229	-66.8335
0.123	-66.7725
0.1231	-66.7419
0.1232	-66.6809
0.1233	-66.5894
0.1234	-66.5894
0.1235	-66.5588
0.1236	-66.4673
0.1237	-66.4673
0.1238	-66.4063
0.1239	-66.3452
0.124	-66.2537
0.1241	-66.2537
0.1242	-66.2537
0.1243	-66.1621
0.1244	-66.1011
0.1245	-66.1316
0.1246	-66.1011
0.1247	-66.1011
0.1248	-66.1011
0.1249	-66.0095
0.125	-65.979
0.1251	-65.979
0.1252	-65.8875
0.1253	-65.8569
0.1254	-65.8569
0.1255	-65.8569
0.1256	-65.8264
0.1257	-65.7959
0.1258	-65.7043
0.1259	-65.7043
0.126	-65.7349
0.1261	-65.6433
0.1262	-65.6433
0.1263	-65.5823
0.1264	-65.5212
0.1265	-65.5518
0.1266	-65.5823
0.1267	-65.5823
0.1268	-65.5212
0.1269	-65.4907
0.127	-65.3687
0.1271	-65.3381
0.1272	-65.3687
0.1273	-65.3076
0.1274	-65.3076
0.1275	-65.2466
0.1276	-65.2161
0.1277	-65.2466
0.1278	-65.1245
0.1279	-65.1245
0.128	-65.094
0.1281	-65.033
0.1282	-65.0024
0.1283	-65.094
0.1284	-64.9719
0.1285	-64.9109
0.1286	-64.9719
0.1287	-64.9719
0.1288	-64.9719
0.1289	-65.0024
0.129	-64.9719
0.1291	-64.9414
0.1292	-64.9719
0.1293	-64.9414
0.1294	-64.9109
0.1295	-64.9719
0.1296	-64.8804
0.1297	-64.9109
0.1298	-64.9109
0.1299	-64.7888
0.13	-64.7888
0.1301	-64.7583
0.1302	-64.7278
0.1303	-64.6667
0.1304	-64.6667
0.1305	-64.5752
0.1306	-64.6362
0.1307	-64.5447
0.1308	-64.5752
0.1309	-64.5447
0.131	-64.5142
0.1311	-64.4836
0.1312	-64.4836
0.1313	-64.4531
0.1314	-64.4531
0.1315	-64.4836
0.1316	-64.4226
0.1317	-64.3921
0.1318	-64.4226
0.1319	-64.3616
0.132	-64.3311
0.1321	-64.3616
0.1322	-64.3311
0.1323	-64.3005
0.1324	-64.3311
0.1325	-64.3005
0.1326	-64.209
0.1327	-64.209
0.1328	-64.1479
0.1329	-64.1479
0.133	-64.209
0.1331	-64.1174
0.1332	-64.0869
0.1333	-64.0869
0.1334	-64.0564
0.1335	-64.0564
0.1336	-64.0259
0.1337	-63.9954
0.1338	-63.9648
0.1339	-63.9954
0.134	-63.9954
0.1341	-63.9648
0.1342	-64.0259
0.1343	-63.9954
0.1344	-64.0259
0.1345	-63.9954
0.1346	-63.9648
0.1347	-63.9648
0.1348	-63.9343
0.1349	-63.8733
0.135	-63.8428
0.1351	-63.8733
0.1352	-63.8123
0.1353	-63.7817
0.1354	-63.7207
0.1355	-63.6902
0.1356	-63.7207
0.1357	-63.6902
0.1358	-63.6292
0.1359	-63.6902
0.136	-63.6292
0.1361	-63.5986
0.1362	-63.6292
0.1363	-63.5986
0.1364	-63.5986
0.1365	-63.6292
0.1366	-63.5681
0.1367	-63.5071
0.1368	-63.5681
0.1369	-63.5071
0.137	-63.4766
0.1371	-63.4766
0.1372	-63.4766
0.1373	-63.446
0.1374	-63.385
0.1375	-63.3545
0.1376	-63.4155
0.1377	-63.2629
0.1378	-63.2019
0.1379	-63.2019
0.138	-63.2324
0.1381	-63.2935
0.1382	-63.2935
0.1383	-63.2324
0.1384	-63.2019
0.1385	-63.2629
0.1386	-63.1714
0.1387	-63.1409
0.1388	-63.2324
0.1389	-63.2019
0.139	-63.2324
0.1391	-63.2324
0.1392	-63.2324
0.1393	-63.2324
0.1394	-63.2019
0.1395	-63.2629
0.1396	-63.2324
0.1397	-63.2324
0.1398	-63.1714
0.1399	-63.2019
0.14	-63.2324
0.1401	-63.2019
0.1402	-63.2019
0.1403	-63.1714
0.1404	-63.1409
0.1405	-63.1714
0.1406	-63.1104
0.1407	-63.0493
0.1408	-63.1104
0.1409	-63.0493
0.141	-63.0493
0.1411	-63.0188
0.1412	-63.0798
0.1413	-63.0798
0.1414	-63.0493
0.1415	-63.0188
0.1416	-63.0188
0.1417	-63.0188
0.1418	-63.0188
0.1419	-62.9578
0.142	-63.0188
0.1421	-63.0188
0.1422	-63.0493
0.1423	-63.1104
0.1424	-63.0493
0.1425	-63.0493
0.1426	-63.0493
0.1427	-62.9883
0.1428	-63.0188
0.1429	-62.9883
0.143	-62.9272
0.1431	-62.9578
0.1432	-62.9883
0.1433	-62.9883
0.1434	-62.9883
0.1435	-62.9883
0.1436	-62.9272
0.1437	-62.9272
0.1438	-62.9578
0.1439	-62.8662
0.144	-62.9578
0.1441	-62.9272
0.1442	-62.9272
0.1443	-62.8967
0.1444	-62.8052
0.1445	-62.8357
0.1446	-62.8357
0.1447	-62.8052
0.1448	-62.7747
0.1449	-62.7441
0.145	-62.7136
0.1451	-62.7441
0.1452	-62.7441
0.1453	-62.6831
0.1454	-62.6831
0.1455	-62.7136
0.1456	-62.6526
0.1457	-62.6221
0.1458	-62.7441
0.1459	-62.6831
0.146	-62.6831
0.1461	-62.6831
0.1462	-62.6831
0.1463	-62.6526
0.1464	-62.7136
0.1465	-62.6831
0.1466	-62.6221
0.1467	-62.6526
0.1468	-62.6526
0.1469	-62.6221
0.147	-62.6526
0.1471	-62.5916
0.1472	-62.561
0.1473	-62.5916
0.1474	-62.5305
0.1475	-62.5305
0.1476	-62.5305
0.1477	-62.5305
0.1478	-62.5305
0.1479	-62.5
0.148	-62.5
0.1481	-62.5
0.1482	-62.5
0.1483	-62.5
0.1484	-62.561
0.1485	-62.5305
0.1486	-62.5305
0.1487	-62.561
0.1488	-62.5
0.1489	-62.4695
0.149	-62.5
0.1491	-62.439
0.1492	-62.4695
0.1493	-62.4695
0.1494	-62.439
0.1495	-62.4084
0.1496	-62.4695
0.1497	-62.3474
0.1498	-62.3169
0.1499	-62.3474
0.15	-62.3474
0.1501	-62.3779
0.1502	-62.3169
0.1503	-62.2253
0.1504	-62.1948
0.1505	-62.1948
0.1506	-62.1948
0.1507	-62.1948
0.1508	-62.2559
0.1509	-62.2559
0.151	-62.3169
0.1511	-62.2864
0.1512	-62.1948
0.1513	-62.1948
0.1514	-62.1643
0.1515	-62.1033
0.1516	-62.1338
0.1517	-62.1338
0.1518	-62.1643
0.1519	-62.2559
0.152	-62.1948
0.1521	-62.1643
0.1522	-62.1643
0.1523	-62.1338
0.1524	-62.1643
0.1525	-62.1948
0.1526	-62.1948
0.1527	-62.1033
0.1528	-62.1643
0.1529	-62.1643
0.153	-62.1033
0.1531	-62.1643
0.1532	-62.1033
0.1533	-62.0728
0.1534	-62.1033
0.1535	-62.0728
0.1536	-62.1033
0.1537	-62.1338
0.1538	-62.0728
0.1539	-62.0422
0.154	-62.0728
0.1541	-62.0422
0.1542	-62.1033
0.1543	-62.0728
0.1544	-62.1338
0.1545	-62.1338
0.1546	-62.1033
0.1547	-62.1033
0.1548	-62.1033
0.1549	-62.1033
0.155	-62.1033
0.1551	-62.1033
0.1552	-62.0728
0.1553	-62.0422
0.1554	-62.1033
0.1555	-62.0728
0.1556	-62.0422
0.1557	-62.0422
0.1558	-61.9812
0.1559	-61.9202
0.156	-61.9202
0.1561	-61.8286
0.1562	-61.8286
0.1563	-61.8591
0.1564	-61.8591
0.1565	-61.7981
0.1566	-61.8896
0.1567	-61.8591
0.1568	-61.9202
0.1569	-61.8896
0.157	-61.9202
0.1571	-61.8896
0.1572	-61.8896
0.1573	-61.8286
0.1574	-61.8591
0.1575	-61.8591
0.1576	-61.7371
0.1577	-61.7676
0.1578	-61.7371
0.1579	-61.7371
0.158	-61.7065
0.1581	-61.676
0.1582	-61.6455
0.1583	-61.676
0.1584	-61.615
0.1585	-61.5234
0.1586	-61.554
0.1587	-61.5234
0.1588	-61.4929
0.1589	-61.5234
0.159	-61.4319
0.1591	-61.4319
0.1592	-61.5234
0.1593	-61.4929
0.1594	-61.4929
0.1595	-61.554
0.1596	-61.615
0.1597	-61.5845
0.1598	-61.615
0.1599	-61.5845
0.16	-61.554
0.1601	-61.6455
0.1602	-61.615
0.1603	-61.6455
0.1604	-61.6455
0.1605	-61.615
0.1606	-61.615
0.1607	-61.6455
0.1608	-61.615
0.1609	-61.615
0.161	-61.6455
0.1611	-61.5845
0.1612	-61.676
0.1613	-61.615
0.1614	-61.5234
0.1615	-61.615
0.1616	-61.615
0.1617	-61.554
0.1618	-61.5845
0.1619	-61.5234
0.162	-61.5234
0.1621	-61.5234
0.1622	-61.5845
0.1623	-61.554
0.1624	-61.554
0.1625	-61.5234
0.1626	-61.5234
0.1627	-61.5234
0.1628	-61.4929
0.1629	-61.5234
0.163	-61.5234
0.1631	-61.4929
0.1632	-61.4319
0.1633	-61.4014
0.1634	-61.4014
0.1635	-61.4014
0.1636	-61.4014
0.1637	-61.3708
0.1638	-61.3403
0.1639	-61.3403
0.164	-61.3403
0.1641	-61.3098
0.1642	-61.3708
0.1643	-61.3403
0.1644	-61.4319
0.1645	-61.3708
0.1646	-61.3403
0.1647	-61.3708
0.1648	-61.3708
0.1649	-61.3098
0.165	-61.4319
0.1651	-61.3708
0.1652	-61.3403
0.1653	-61.4014
0.1654	-61.3403
0.1655	-61.3403
0.1656	-61.3403
0.1657	-61.1877
0.1658	-61.1877
0.1659	-61.1572
0.166	-61.1572
0.1661	-61.1267
0.1662	-61.1267
0.1663	-61.1267
0.1664	-61.0962
0.1665	-61.1267
0.1666	-61.0962
0.1667	-61.1267
0.1668	-61.1572
0.1669	-61.0962
0.167	-61.1267
0.1671	-61.1572
0.1672	-61.0962
0.1673	-61.1267
0.1674	-61.1572
0.1675	-61.1267
0.1676	-61.1572
0.1677	-61.1877
0.1678	-61.1267
0.1679	-61.1877
0.168	-61.0962
0.1681	-61.0962
0.1682	-61.0962
0.1683	-61.0962
0.1684	-61.0962
0.1685	-61.0352
0.1686	-60.9131
0.1687	-60.8521
0.1688	-60.8521
0.1689	-60.8521
0.169	-60.8215
0.1691	-60.8521
0.1692	-60.8215
0.1693	-60.8521
0.1694	-60.9436
0.1695	-60.8826
0.1696	-60.9741
0.1697	-61.0352
0.1698	-61.0352
0.1699	-60.9741
0.17	-61.0046
0.1701	-60.9436
0.1702	-60.9741
0.1703	-61.0352
0.1704	-60.9436
0.1705	-60.9436
0.1706	-60.9436
0.1707	-60.8826
0.1708	-60.8826
0.1709	-60.8826
0.171	-60.791
0.1711	-60.7605
0.1712	-60.6689
0.1713	-60.6384
0.1714	-60.6689
0.1715	-60.6079
0.1716	-60.6079
0.1717	-60.5469
0.1718	-60.5164
0.1719	-60.4858
0.172	-60.5774
0.1721	-60.6384
0.1722	-60.6079
0.1723	-60.6995
0.1724	-60.6384
0.1725	-60.6384
0.1726	-60.6995
0.1727	-60.6689
0.1728	-60.6384
0.1729	-60.6689
0.173	-60.6384
0.1731	-60.6995
0.1732	-60.6689
0.1733	-60.5774
0.1734	-60.6079
0.1735	-60.6384
0.1736	-60.6384
0.1737	-60.6079
0.1738	-60.6995
0.1739	-60.6689
0.174	-60.6384
0.1741	-60.6995
0.1742	-60.6995
0.1743	-60.73
0.1744	-60.6689
0.1745	-60.6995
0.1746	-60.73
0.1747	-60.6384
0.1748	-60.6384
0.1749	-60.6689
0.175	-60.6079
0.1751	-60.5469
0.1752	-60.6079
0.1753	-60.5164
0.1754	-60.4553
0.1755	-60.5164
0.1756	-60.5164
0.1757	-60.4553
0.1758	-60.4248
0.1759	-60.3027
0.176	-60.2722
0.1761	-60.3027
0.1762	-60.2417
0.1763	-60.1501
0.1764	-60.1807
0.1765	-60.0586
0.1766	-59.9976
0.1767	-59.967
0.1768	-59.845
0.1769	-59.8755
0.177	-59.8755
0.1771	-59.845
0.1772	-59.8145
0.1773	-59.8145
0.1774	-59.7229
0.1775	-59.7229
0.1776	-59.7229
0.1777	-59.6924
0.1778	-59.7229
0.1779	-59.6924
0.178	-59.6619
0.1781	-59.6619
0.1782	-59.6619
0.1783	-59.6924
0.1784	-59.7839
0.1785	-59.7534
0.1786	-59.7229
0.1787	-59.7839
0.1788	-59.7839
0.1789	-59.8145
0.179	-59.8755
0.1791	-59.7534
0.1792	-59.7229
0.1793	-59.7839
0.1794	-59.7229
0.1795	-59.6924
0.1796	-59.7534
0.1797	-59.6619
0.1798	-59.7229
0.1799	-59.7229
0.18	-59.6619
0.1801	-59.6313
0.1802	-59.6313
0.1803	-59.6313
0.1804	-59.6313
0.1805	-59.6008
0.1806	-59.4788
0.1807	-59.4482
0.1808	-59.4177
0.1809	-59.3567
0.181	-59.2041
0.1811	-59.1125
0.1812	-58.9294
0.1813	-58.7769
0.1814	-58.5632
0.1815	-58.3191
0.1816	-57.7087
0.1817	-53.2837
0.1818	-42.7551
0.1819	-20.3247
0.182	0.213623
0.1821	10.8948
0.1822	10.8032
0.1823	2.62451
0.1824	-8.60596
0.1825	-20.2942
0.1826	-31.1279
0.1827	-40.4358
0.1828	-48.1567
0.1829	-54.1382
0.183	-58.8379
0.1831	-62.4695
0.1832	-64.9719
0.1833	-66.8335
0.1834	-68.2068
0.1835	-69.0918
0.1836	-69.8242
0.1837	-70.282
0.1838	-70.4956
0.1839	-70.6177
0.184	-70.7092
0.1841	-70.8008
0.1842	-70.7703
0.1843	-70.7703
0.1844	-70.6482
0.1845	-70.6177
0.1846	-70.5566
0.1847	-70.4346
0.1848	-70.343
0.1849	-70.2209
0.185	-70.0684
0.1851	-70.0073
0.1852	-69.8547
0.1853	-69.7327
0.1854	-69.6716
0.1855	-69.4885
0.1856	-69.3665
0.1857	-69.3665
0.1858	-69.2749
0.1859	-69.1528
0.186	-69.1833
0.1861	-69.0308
0.1862	-69.0002
0.1863	-68.9087
0.1864	-68.8477
0.1865	-68.7866
0.1866	-68.7866
0.1867	-68.6951
0.1868	-68.6035
0.1869	-68.6646
0.187	-68.6035
0.1871	-68.6035
0.1872	-68.573
0.1873	-68.512
0.1874	-68.4509
0.1875	-68.4814
0.1876	-68.3899
0.1877	-68.3594
0.1878	-68.3289
0.1879	-68.2983
0.188	-68.2983
0.1881	-68.2678
0.1882	-68.2678
0.1883	-68.2678
0.1884	-68.2068
0.1885	-68.1763
0.1886	-68.2678
0.1887	-68.2068
0.1888	-68.2373
0.1889	-68.3289
0.189	-68.2983
0.1891	-68.2678
0.1892	-68.2983
0.1893	-68.3594
0.1894	-68.2373
0.1895	-68.3289
0.1896	-68.2373
0.1897	-68.2373
0.1898	-68.3289
0.1899	-68.2068
0.19	-68.2068
0.1901	-68.2068
0.1902	-68.1458
0.1903	-68.2068
0.1904	-68.2678
0.1905	-68.1763
0.1906	-68.2068
0.1907	-68.2373
0.1908	-68.1763
0.1909	-68.1458
0.191	-68.1763
0.1911	-68.1458
0.1912	-68.1458
0.1913	-68.1458
0.1914	-68.1152
0.1915	-68.1152
0.1916	-68.0542
0.1917	-68.0237
0.1918	-68.0237
0.1919	-67.9626
0.192	-67.9932
0.1921	-67.9626
0.1922	-67.9626
0.1923	-67.9321
0.1924	-67.9932
0.1925	-67.9016
0.1926	-67.8406
0.1927	-67.9016
0.1928	-67.8101
0.1929	-67.7795
0.193	-67.8101
0.1931	-67.8101
0.1932	-67.7185
0.1933	-67.7185
0.1934	-67.7185
0.1935	-67.7185
0.1936	-67.7185
0.1937	-67.6575
0.1938	-67.6575
0.1939	-67.6575
0.194	-67.5659
0.1941	-67.5659
0.1942	-67.5659
0.1943	-67.5354
0.1944	-67.4744
0.1945	-67.4438
0.1946	-67.4438
0.1947	-67.4438
0.1948	-67.4133
0.1949	-67.3523
0.195	-67.3828
0.1951	-67.3523
0.1952	-67.3523
0.1953	-67.3523
0.1954	-67.3218
0.1955	-67.2607
0.1956	-67.2607
0.1957	-67.2607
0.1958	-67.2302
0.1959	-67.2607
0.196	-67.2302
0.1961	-67.1692
0.1962	-67.2302
0.1963	-67.1997
0.1964	-67.1387
0.1965	-67.1692
0.1966	-67.0776
0.1967	-67.1082
0.1968	-67.0776
0.1969	-67.0776
0.197	-67.0471
0.1971	-67.0471
0.1972	-67.0166
0.1973	-67.0166
0.1974	-66.9861
0.1975	-66.925
0.1976	-66.8945
0.1977	-66.925
0.1978	-66.8945
0.1979	-66.8335
0.198	-66.803
0.1981	-66.8335
0.1982	-66.8335
0.1983	-66.803
0.1984	-66.7419
0.1985	-66.803
0.1986	-66.803
0.1987	-66.7419
0.1988	-66.7419
0.1989	-66.6809
0.199	-66.6504
0.1991	-66.6809
0.1992	-66.6199
0.1993	-66.5894
0.1994	-66.7114
0.1995	-66.5894
0.1996	-66.5894
0.1997	-66.5894
0.1998	-66.5588
0.1999	-66.4978
0.2	-66.5588
0.2001	-66.4978
0.2002	-66.4368
0.2003	-66.4673
0.2004	-66.3757
0.2005	-66.3452
0.2006	-66.3757
0.2007	-66.3452
0.2008	-66.2842
0.2009	-66.3147
0.201	-66.2842
0.2011	-66.2537
0.2012	-66.2537
0.2013	-66.1926
0.2014	-66.2231
0.2015	-66.1621
0.2016	-66.1621
0.2017	-66.1621
0.2018	-66.1316
0.2019	-66.0706
0.202	-66.1011
0.2021	-66.0706
0.2022	-66.0706
0.2023	-66.0706
0.2024	-66.04
0.2025	-65.979
0.2026	-65.9485
0.2027	-65.918
0.2028	-65.918
0.2029	-65.918
0.203	-65.9485
0.2031	-65.918
0.2032	-65.9485
0.2033	-65.918
0.2034	-65.8875
0.2035	-65.8569
0.2036	-65.7959
0.2037	-65.7959
0.2038	-65.8264
0.2039	-65.7959
0.204	-65.7654
0.2041	-65.8264
0.2042	-65.7349
0.2043	-65.7349
0.2044	-65.7349
0.2045	-65.6738
0.2046	-65.6738
0.2047	-65.7043
0.2048	-65.6738
0.2049	-65.7349
0.205	-65.6738
0.2051	-65.5823
0.2052	-65.6433
0.2053	-65.6128
0.2054	-65.6128
0.2055	-65.5823
0.2056	-65.5518
0.2057	-65.5518
0.2058	-65.5823
0.2059	-65.5518
0.206	-65.4907
0.2061	-65.5212
0.2062	-65.5212
0.2063	-65.5212
0.2064	-65.5212
0.2065	-65.4602
0.2066	-65.4602
0.2067	-65.4602
0.2068	-65.3992
0.2069	-65.3687
0.207	-65.3992
0.2071	-65.3076
0.2072	-65.3381
0.2073	-65.3381
0.2074	-65.3076
0.2075	-65.2466
0.2076	-65.2771
0.2077	-65.2161
0.2078	-65.2161
0.2079	-65.2161
0.208	-65.1855
0.2081	-65.2161
0.2082	-65.2161
0.2083	-65.1855
0.2084	-65.155
0.2085	-65.155
0.2086	-65.1245
0.2087	-65.1245
0.2088	-65.094
0.2089	-65.0635
0.209	-65.094
0.2091	-65.0635
0.2092	-65.033
0.2093	-65.0635
0.2094	-65.033
0.2095	-65.0024
0.2096	-65.094
0.2097	-65.0635
0.2098	-65.033
0.2099	-65.094
0.21	-65.0024
0.2101	-65.0024
0.2102	-65.0024
0.2103	-65.0024
0.2104	-64.9414
0.2105	-64.9719
0.2106	-64.9414
0.2107	-64.9109
0.2108	-64.9109
0.2109	-64.8499
0.211	-64.7888
0.2111	-64.8499
0.2112	-64.8499
0.2113	-64.8193
0.2114	-64.8193
0.2115	-64.7278
0.2116	-64.7888
0.2117	-64.7888
0.2118	-64.7278
0.2119	-64.7278
0.212	-64.6667
0.2121	-64.6362
0.2122	-64.6362
0.2123	-64.6362
0.2124	-64.6667
0.2125	-64.6057
0.2126	-64.6057
0.2127	-64.5752
0.2128	-64.6362
0.2129	-64.6057
0.213	-64.5447
0.2131	-64.6057
0.2132	-64.5447
0.2133	-64.5142
0.2134	-64.5752
0.2135	-64.5447
0.2136	-64.4836
0.2137	-64.5447
0.2138	-64.5142
0.2139	-64.4836
0.214	-64.5447
0.2141	-64.4836
0.2142	-64.4226
0.2143	-64.4226
0.2144	-64.3616
0.2145	-64.3921
0.2146	-64.3921
0.2147	-64.4226
0.2148	-64.3311
0.2149	-64.2395
0.215	-64.209
0.2151	-64.2395
0.2152	-64.1785
0.2153	-64.1479
0.2154	-64.209
0.2155	-64.209
0.2156	-64.209
0.2157	-64.1785
0.2158	-64.1785
0.2159	-64.1174
0.216	-64.1785
0.2161	-64.1479
0.2162	-64.1174
0.2163	-64.1785
0.2164	-64.1479
0.2165	-64.1174
0.2166	-64.0869
0.2167	-64.0259
0.2168	-64.0564
0.2169	-64.0869
0.217	-63.9954
0.2171	-63.9954
0.2172	-63.9648
0.2173	-63.9343
0.2174	-63.8733
0.2175	-63.9038
0.2176	-63.8733
0.2177	-63.9038
0.2178	-63.9343
0.2179	-63.8428
0.218	-63.8733
0.2181	-63.8733
0.2182	-63.8428
0.2183	-63.8123
0.2184	-63.8123
0.2185	-63.7512
0.2186	-63.7512
0.2187	-63.6902
0.2188	-63.7207
0.2189	-63.7207
0.219	-63.6597
0.2191	-63.6292
0.2192	-63.6597
0.2193	-63.6292
0.2194	-63.6597
0.2195	-63.7207
0.2196	-63.7207
0.2197	-63.6902
0.2198	-63.7512
0.2199	-63.7207
0.22	-63.6292
0.2201	-63.7207
0.2202	-63.6902
0.2203	-63.6292
0.2204	-63.6292
0.2205	-63.5986
0.2206	-63.5986
0.2207	-63.6292
0.2208	-63.5986
0.2209	-63.5681
0.221	-63.5986
0.2211	-63.5681
0.2212	-63.5986
0.2213	-63.6292
0.2214	-63.5986
0.2215	-63.5986
0.2216	-63.5681
0.2217	-63.5376
0.2218	-63.5376
0.2219	-63.5681
0.222	-63.5071
0.2221	-63.5376
0.2222	-63.5376
0.2223	-63.4766
0.2224	-63.4766
0.2225	-63.4155
0.2226	-63.4155
0.2227	-63.385
0.2228	-63.385
0.2229	-63.4155
0.223	-63.3545
0.2231	-63.324
0.2232	-63.2629
0.2233	-63.324
0.2234	-63.2324
0.2235	-63.2324
0.2236	-63.2324
0.2237	-63.1714
0.2238	-63.0798
0.2239	-63.1104
0.224	-63.0798
0.2241	-63.1104
0.2242	-63.1409
0.2243	-63.0493
0.2244	-63.0493
0.2245	-63.0493
0.2246	-63.0798
0.2247	-63.0798
0.2248	-63.0493
0.2249	-62.9883
0.225	-62.9883
0.2251	-63.0188
0.2252	-63.0188
0.2253	-62.9578
0.2254	-62.9883
0.2255	-62.9883
0.2256	-63.0188
0.2257	-62.9883
0.2258	-62.9272
0.2259	-62.9578
0.226	-62.9883
0.2261	-63.0188
0.2262	-63.0188
0.2263	-63.0188
0.2264	-62.9578
0.2265	-63.0493
0.2266	-63.1104
0.2267	-63.0188
0.2268	-63.0493
0.2269	-62.9883
0.227	-62.9578
0.2271	-63.0493
0.2272	-63.0493
0.2273	-62.9883
0.2274	-63.0188
0.2275	-62.9578
0.2276	-62.9578
0.2277	-63.0188
0.2278	-62.9578
0.2279	-62.9272
0.228	-62.9272
0.2281	-62.9272
0.2282	-62.9578
0.2283	-62.9883
0.2284	-62.9578
0.2285	-63.0188
0.2286	-62.9272
0.2287	-62.9578
0.2288	-62.9578
0.2289	-62.9578
0.229	-62.9272
0.2291	-62.8967
0.2292	-62.9272
0.2293	-62.9272
0.2294	-62.9578
0.2295	-62.9578
0.2296	-62.9578
0.2297	-62.9883
0.2298	-62.9578
0.2299	-62.8967
0.23	-62.9578
0.2301	-62.8967
0.2302	-62.8967
0.2303	-62.9578
0.2304	-62.8967
0.2305	-62.8967
0.2306	-62.9883
0.2307	-62.8662
0.2308	-62.8662
0.2309	-62.8967
0.231	-62.7747
0.2311	-62.7747
0.2312	-62.8357
0.2313	-62.8662
0.2314	-62.8357
0.2315	-62.8357
0.2316	-62.7747
0.2317	-62.8052
0.2318	-62.8357
0.2319	-62.8052
0.232	-62.7747
0.2321	-62.7441
0.2322	-62.7136
0.2323	-62.7747
0.2324	-62.8052
0.2325	-62.7747
0.2326	-62.8052
0.2327	-62.7747
0.2328	-62.7747
0.2329	-62.7747
0.233	-62.7441
0.2331	-62.6526
0.2332	-62.6221
0.2333	-62.561
0.2334	-62.5305
0.2335	-62.5916
0.2336	-62.5305
0.2337	-62.5
0.2338	-62.5305
0.2339	-62.4695
0.234	-62.5
0.2341	-62.561
0.2342	-62.5305
0.2343	-62.5
0.2344	-62.5
0.2345	-62.439
0.2346	-62.5
0.2347	-62.561
0.2348	-62.439
0.2349	-62.4695
0.235	-62.4695
0.2351	-62.439
0.2352	-62.3779
0.2353	-62.4084
0.2354	-62.3474
0.2355	-62.3169
0.2356	-62.3169
0.2357	-62.2559
0.2358	-62.2559
0.2359	-62.2253
0.236	-62.2864
0.2361	-62.3169
0.2362	-62.3169
0.2363	-62.3169
0.2364	-62.3779
0.2365	-62.2864
0.2366	-62.3169
0.2367	-62.3779
0.2368	-62.2559
0.2369	-62.2253
0.237	-62.3474
0.2371	-62.3169
0.2372	-62.3169
0.2373	-62.3779
0.2374	-62.3169
0.2375	-62.2864
0.2376	-62.3169
0.2377	-62.2253
0.2378	-62.2253
0.2379	-62.2559
0.238	-62.1948
0.2381	-62.2253
0.2382	-62.2253
0.2383	-62.1948
0.2384	-62.1948
0.2385	-62.2253
0.2386	-62.2253
0.2387	-62.1948
0.2388	-62.2253
0.2389	-62.1948
0.239	-62.2864
0.2391	-62.1948
0.2392	-62.2253
0.2393	-62.2864
0.2394	-62.2559
0.2395	-62.2253
0.2396	-62.2253
0.2397	-62.1643
0.2398	-62.1338
0.2399	-62.1948
0.24	-62.1643
0.2401	-62.1643
0.2402	-62.2253
0.2403	-62.1948
0.2404	-62.1948
0.2405	-62.1948
0.2406	-62.1948
0.2407	-62.1948
0.2408	-62.2253
0.2409	-62.1948
0.241	-62.2253
0.2411	-62.2253
0.2412	-62.1338
0.2413	-62.1948
0.2414	-62.2253
0.2415	-62.1948
0.2416	-62.1948
0.2417	-62.1948
0.2418	-62.1948
0.2419	-62.1948
0.242	-62.1338
0.2421	-62.1033
0.2422	-62.1033
0.2423	-62.1033
0.2424	-62.1033
0.2425	-62.0728
0.2426	-62.0728
0.2427	-62.0728
0.2428	-62.1033
0.2429	-62.0728
0.243	-62.0117
0.2431	-62.0728
0.2432	-62.1033
0.2433	-62.0117
0.2434	-62.0117
0.2435	-61.9812
0.2436	-61.9507
0.2437	-61.9812
0.2438	-61.9202
0.2439	-61.9812
0.244	-61.8896
0.2441	-61.8286
0.2442	-61.8286
0.2443	-61.8896
0.2444	-61.7981
0.2445	-61.7676
0.2446	-61.7676
0.2447	-61.7065
0.2448	-61.7065
0.2449	-61.7371
0.245	-61.7371
0.2451	-61.7371
0.2452	-61.7371
0.2453	-61.7981
0.2454	-61.7371
0.2455	-61.7371
0.2456	-61.7676
0.2457	-61.8286
0.2458	-61.8286
0.2459	-61.7981
0.246	-61.7371
0.2461	-61.7065
0.2462	-61.6455
0.2463	-61.6455
0.2464	-61.6455
0.2465	-61.615
0.2466	-61.6455
0.2467	-61.554
0.2468	-61.5845
0.2469	-61.554
0.247	-61.5234
0.2471	-61.5234
0.2472	-61.554
0.2473	-61.4929
0.2474	-61.4929
0.2475	-61.5234
0.2476	-61.4624
0.2477	-61.4929
0.2478	-61.4624
0.2479	-61.4319
0.248	-61.3708
0.2481	-61.3708
0.2482	-61.3708
0.2483	-61.3708
0.2484	-61.3403
0.2485	-61.3098
0.2486	-61.3403
0.2487	-61.4014
0.2488	-61.4014
0.2489	-61.4014
0.249	-61.4319
0.2491	-61.4319
0.2492	-61.3708
0.2493	-61.2793
0.2494	-61.3098
0.2495	-61.3098
0.2496	-61.2488
0.2497	-61.3098
0.2498	-61.3098
0.2499	-61.2488
0.25	-61.2793
0.2501	-61.3098
0.2502	-61.2488
0.2503	-61.2183
0.2504	-61.2793
0.2505	-61.3098
0.2506	-61.3403
0.2507	-61.4014
0.2508	-61.3708
0.2509	-61.3403
0.251	-61.3403
0.2511	-61.2793
0.2512	-61.3098
0.2513	-61.3403
0.2514	-61.3098
0.2515	-61.2793
0.2516	-61.3403
0.2517	-61.2488
0.2518	-61.2488
0.2519	-61.2183
0.252	-61.1877
0.2521	-61.0962
0.2522	-61.1267
0.2523	-61.0352
0.2524	-61.0352
0.2525	-61.0046
0.2526	-60.9741
0.2527	-61.0046
0.2528	-60.9436
0.2529	-60.9741
0.253	-60.9741
0.2531	-60.9436
0.2532	-60.9436
0.2533	-60.9741
0.2534	-60.9741
0.2535	-60.9436
0.2536	-61.0046
0.2537	-60.9436
0.2538	-60.9131
0.2539	-60.8826
0.254	-60.8215
0.2541	-60.791
0.2542	-60.8521
0.2543	-60.73
0.2544	-60.6995
0.2545	-60.6689
0.2546	-60.6384
0.2547	-60.6689
0.2548	-60.73
0.2549	-60.6995
0.255	-60.6689
0.2551	-60.6689
0.2552	-60.6689
0.2553	-60.6689
0.2554	-60.6689
0.2555	-60.6995
0.2556	-60.6689
0.2557	-60.6995
0.2558	-60.6689
0.2559	-60.7605
0.256	-60.73
0.2561	-60.73
0.2562	-60.8215
0.2563	-60.73
0.2564	-60.6689
0.2565	-60.6689
0.2566	-60.6384
0.2567	-60.6689
0.2568	-60.6384
0.2569	-60.5469
0.257	-60.5164
0.2571	-60.4858
0.2572	-60.4553
0.2573	-60.4248
0.2574	-60.5164
0.2575	-60.5164
0.2576	-60.5469
0.2577	-60.6079
0.2578	-60.6079
0.2579	-60.6079
0.258	-60.73
0.2581	-60.73
0.2582	-60.73
0.2583	-60.8215
0.2584	-60.791
0.2585	-60.8521
0.2586	-60.791
0.2587	-60.791
0.2588	-60.8215
0.2589	-60.7605
0.259	-60.7605
0.2591	-60.8215
0.2592	-60.8521
0.2593	-60.8215
0.2594	-60.8521
0.2595	-60.8215
0.2596	-60.8215
0.2597	-60.8826
0.2598	-60.8215
0.2599	-60.8215
0.26	-60.9436
0.2601	-60.8826
0.2602	-60.8521
0.2603	-60.9131
0.2604	-60.8215
0.2605	-60.8215
0.2606	-60.8826
0.2607	-60.8521
0.2608	-60.8215
0.2609	-60.8521
0.261	-60.791
0.2611	-60.8215
0.2612	-60.9436
0.2613	-60.8826
0.2614	-60.8826
0.2615	-60.9131
0.2616	-60.8826
0.2617	-60.9131
0.2618	-61.0046
0.2619	-60.9741
0.262	-60.9741
0.2621	-61.0352
0.2622	-61.0352
0.2623	-61.0352
0.2624	-60.9741
0.2625	-60.8826
0.2626	-60.9436
0.2627	-60.8826
0.2628	-60.8521
0.2629	-60.9131
0.263	-60.9131
0.2631	-60.8521
0.2632	-60.8521
0.2633	-60.791
0.2634	-60.73
0.2635	-60.791
0.2636	-60.6995
0.2637	-60.6384
0.2638	-60.6384
0.2639	-60.6384
0.264	-60.6384
0.2641	-60.6689
0.2642	-60.6079
0.2643	-60.6689
0.2644	-60.6995
0.2645	-60.6079
0.2646	-60.5774
0.2647	-60.5774
0.2648	-60.5164
0.2649	-60.5164
0.265	-60.5774
0.2651	-60.5164
0.2652	-60.4858
0.2653	-60.4858
0.2654	-60.4858
0.2655	-60.5469
0.2656	-60.5774
0.2657	-60.5469
0.2658	-60.5774
0.2659	-60.4858
0.266	-60.5469
0.2661	-60.5469
0.2662	-60.5164
0.2663	-60.4858
0.2664	-60.5469
0.2665	-60.4858
0.2666	-60.4248
0.2667	-60.4858
0.2668	-60.4553
0.2669	-60.4858
0.267	-60.4858
0.2671	-60.4553
0.2672	-60.4553
0.2673	-60.4858
0.2674	-60.5164
0.2675	-60.4858
0.2676	-60.5774
0.2677	-60.5774
0.2678	-60.5469
0.2679	-60.5774
0.268	-60.4858
0.2681	-60.4553
0.2682	-60.4248
0.2683	-60.3333
0.2684	-60.3027
0.2685	-60.3027
0.2686	-60.2417
0.2687	-60.2112
0.2688	-60.2417
0.2689	-60.2112
0.269	-60.2417
0.2691	-60.3027
0.2692	-60.2722
0.2693	-60.3638
0.2694	-60.3333
0.2695	-60.3638
0.2696	-60.3943
0.2697	-60.3638
0.2698	-60.3333
0.2699	-60.3027
0.27	-60.2722
0.2701	-60.2112
0.2702	-60.2417
0.2703	-60.2417
0.2704	-60.2112
0.2705	-60.2722
0.2706	-60.2722
0.2707	-60.2112
0.2708	-60.2722
0.2709	-60.2417
0.271	-60.2112
0.2711	-60.2417
0.2712	-60.2417
0.2713	-60.2722
0.2714	-60.3333
0.2715	-60.2722
0.2716	-60.3027
0.2717	-60.3943
0.2718	-60.3638
0.2719	-60.3333
0.272	-60.3333
0.2721	-60.2417
0.2722	-60.2722
0.2723	-60.3027
0.2724	-60.2722
0.2725	-60.2722
0.2726	-60.3027
0.2727	-60.3027
0.2728	-60.2722
0.2729	-60.2112
0.273	-60.2417
0.2731	-60.2417
0.2732	-60.2417
0.2733	-60.2417
0.2734	-60.2722
0.2735	-60.3027
0.2736	-60.3333
0.2737	-60.4248
0.2738	-60.3943
0.2739	-60.4248
0.274	-60.4553
0.2741	-60.4553
0.2742	-60.5164
0.2743	-60.5164
0.2744	-60.5164
0.2745	-60.5164
0.2746	-60.6384
0.2747	-60.6079
0.2748	-60.5774
0.2749	-60.6079
0.275	-60.6689
0.2751	-60.73
0.2752	-60.8215
0.2753	-60.791
0.2754	-60.791
0.2755	-60.8826
0.2756	-60.8826
0.2757	-60.8826
0.2758	-60.9436
0.2759	-60.9436
0.276	-61.0046
0.2761	-61.0657
0.2762	-61.0352
0.2763	-61.0657
0.2764	-61.0962
0.2765	-61.0657
0.2766	-61.1267
0.2767	-61.2183
0.2768	-61.1267
0.2769	-61.2183
0.277	-61.2488
0.2771	-61.1877
0.2772	-61.2488
0.2773	-61.2488
0.2774	-61.3098
0.2775	-61.3403
0.2776	-61.3098
0.2777	-61.3403
0.2778	-61.3708
0.2779	-61.3708
0.278	-61.3403
0.2781	-61.4014
0.2782	-61.4014
0.2783	-61.4014
0.2784	-61.4624
0.2785	-61.3708
0.2786	-61.4319
0.2787	-61.4319
0.2788	-61.4624
0.2789	-61.5234
0.279	-61.5845
0.2791	-61.5845
0.2792	-61.615
0.2793	-61.6455
0.2794	-61.615
0.2795	-61.5845
0.2796	-61.554
0.2797	-61.4929
0.2798	-61.554
0.2799	-61.5234
0.28	-61.4929
0.2801	-61.5234
0.2802	-61.5234
0.2803	-61.5845
0.2804	-61.6455
0.2805	-61.615
0.2806	-61.5845
0.2807	-61.5845
0.2808	-61.554
0.2809	-61.5234
0.281	-61.554
0.2811	-61.4929
0.2812	-61.554
0.2813	-61.554
0.2814	-61.554
0.2815	-61.554
0.2816	-61.5845
0.2817	-61.554
0.2818	-61.5234
0.2819	-61.615
0.282	-61.615
0.2821	-61.5845
0.2822	-61.6455
0.2823	-61.615
0.2824	-61.615
0.2825	-61.6455
0.2826	-61.615
0.2827	-61.6455
0.2828	-61.676
0.2829	-61.7371
0.283	-61.7676
0.2831	-61.7371
0.2832	-61.7371
0.2833	-61.8286
0.2834	-61.7676
0.2835	-61.7981
0.2836	-61.8286
0.2837	-61.7371
0.2838	-61.7065
0.2839	-61.7676
0.284	-61.7065
0.2841	-61.7065
0.2842	-61.7676
0.2843	-61.7371
0.2844	-61.7676
0.2845	-61.8286
0.2846	-61.7981
0.2847	-61.7981
0.2848	-61.8896
0.2849	-61.8286
0.285	-61.8286
0.2851	-61.8896
0.2852	-61.9202
0.2853	-61.8896
0.2854	-61.8896
0.2855	-61.8591
0.2856	-61.8286
0.2857	-61.8896
0.2858	-61.8591
0.2859	-61.8896
0.286	-61.9202
0.2861	-61.9202
0.2862	-61.9812
0.2863	-62.0117
0.2864	-61.9507
0.2865	-62.0422
0.2866	-62.1033
0.2867	-62.0117
0.2868	-62.0422
0.2869	-62.0117
0.287	-61.9812
0.2871	-62.0422
0.2872	-61.9812
0.2873	-61.9507
0.2874	-61.9507
0.2875	-61.9202
0.2876	-61.8896
0.2877	-61.9202
0.2878	-61.8896
0.2879	-61.8591
0.288	-61.9507
0.2881	-61.9507
0.2882	-61.9507
0.2883	-62.0117
0.2884	-61.9812
0.2885	-61.9812
0.2886	-62.0117
0.2887	-61.9812
0.2888	-61.9507
0.2889	-61.9202
0.289	-61.9202
0.2891	-61.9202
0.2892	-62.0117
0.2893	-61.9812
0.2894	-61.9812
0.2895	-62.0728
0.2896	-61.9812
0.2897	-61.9812
0.2898	-62.0117
0.2899	-61.9507
0.29	-62.0117
0.2901	-62.0422
0.2902	-62.0728
0.2903	-62.0728
0.2904	-62.0422
0.2905	-62.0422
0.2906	-62.0117
0.2907	-61.9812
0.2908	-61.9507
0.2909	-61.9812
0.291	-62.0117
0.2911	-61.9812
0.2912	-62.0117
0.2913	-61.9507
0.2914	-61.9507
0.2915	-62.0422
0.2916	-62.0422
0.2917	-61.9507
0.2918	-62.0422
0.2919	-62.0728
0.292	-62.0422
0.2921	-62.1033
0.2922	-62.0728
0.2923	-62.1033
0.2924	-62.1338
0.2925	-62.0728
0.2926	-62.0728
0.2927	-62.1033
0.2928	-62.1338
0.2929	-62.1338
0.293	-62.1643
0.2931	-62.1643
0.2932	-62.1643
0.2933	-62.1033
0.2934	-62.1033
0.2935	-62.1643
0.2936	-62.1033
0.2937	-62.1033
0.2938	-62.1948
0.2939	-62.1338
0.294	-62.1338
0.2941	-62.1643
0.2942	-62.1033
0.2943	-62.0728
0.2944	-62.0422
0.2945	-61.9812
0.2946	-61.9812
0.2947	-62.0422
0.2948	-62.0117
0.2949	-61.9812
0.295	-61.9507
0.2951	-61.9202
0.2952	-61.9812
0.2953	-62.0117
0.2954	-61.9507
0.2955	-61.9507
0.2956	-61.9812
0.2957	-61.8896
0.2958	-61.8591
0.2959	-61.9202
0.296	-61.9507
0.2961	-61.9812
0.2962	-62.0117
0.2963	-61.8896
0.2964	-61.8896
0.2965	-61.8896
0.2966	-61.9507
0.2967	-61.9507
0.2968	-61.9507
0.2969	-61.9812
0.297	-61.9507
0.2971	-61.9202
0.2972	-61.9507
0.2973	-61.9202
0.2974	-61.8286
0.2975	-61.8286
0.2976	-61.8591
0.2977	-61.8286
0.2978	-61.8591
0.2979	-61.8591
0.298	-61.8591
0.2981	-61.9507
0.2982	-61.9507
0.2983	-61.9202
0.2984	-61.8896
0.2985	-61.9507
0.2986	-61.9202
0.2987	-61.9202
0.2988	-61.9202
0.2989	-61.9202
0.299	-61.9812
0.2991	-62.0117
0.2992	-61.9812
0.2993	-61.9507
0.2994	-62.0117
0.2995	-61.9812
0.2996	-61.9507
0.2997	-61.9507
0.2998	-61.9202
0.2999	-61.9507
0.3	-61.9507
0.3001	-61.9202
0.3002	-61.9812
0.3003	-61.9202
0.3004	-61.9202
0.3005	-61.9507
0.3006	-61.9812
0.3007	-61.8896
0.3008	-61.8896
0.3009	-61.8591
0.301	-61.8286
0.3011	-61.8896
0.3012	-61.8286
0.3013	-61.8286
0.3014	-61.8591
0.3015	-61.8591
0.3016	-61.8286
0.3017	-61.8591
0.3018	-61.7981
0.3019	-61.7981
0.302	-61.7981
0.3021	-61.7371
0.3022	-61.8286
0.3023	-61.8591
0.3024	-61.7676
0.3025	-61.7981
0.3026	-61.7676
0.3027	-61.7065
0.3028	-61.7065
0.3029	-61.7065
0.303	-61.676
0.3031	-61.676
0.3032	-61.7065
0.3033	-61.676
0.3034	-61.7065
0.3035	-61.7065
0.3036	-61.7371
0.3037	-61.7676
0.3038	-61.7065
0.3039	-61.7065
0.304	-61.7065
0.3041	-61.7371
0.3042	-61.7371
0.3043	-61.7981
0.3044	-61.7371
0.3045	-61.7065
0.3046	-61.7676
0.3047	-61.7371
0.3048	-61.7981
0.3049	-61.8286
0.305	-61.8286
0.3051	-61.7981
0.3052	-61.8591
0.3053	-61.8286
0.3054	-61.7981
0.3055	-61.8286
0.3056	-61.7371
0.3057	-61.7981
0.3058	-61.8896
0.3059	-61.8591
0.306	-61.8286
0.3061	-61.8286
0.3062	-61.8591
0.3063	-61.8591
0.3064	-61.8896
0.3065	-61.8896
0.3066	-61.9202
0.3067	-61.8896
0.3068	-61.8896
0.3069	-61.9507
0.307	-61.8896
0.3071	-61.8591
0.3072	-61.9202
0.3073	-61.8591
0.3074	-61.8286
0.3075	-61.8286
0.3076	-61.7371
0.3077	-61.7371
0.3078	-61.7065
0.3079	-61.5845
0.308	-61.615
0.3081	-61.676
0.3082	-61.676
0.3083	-61.676
0.3084	-61.6455
0.3085	-61.5845
0.3086	-61.554
0.3087	-61.554
0.3088	-61.4929
0.3089	-61.4624
0.309	-61.5234
0.3091	-61.4929
0.3092	-61.5234
0.3093	-61.4929
0.3094	-61.4929
0.3095	-61.4929
0.3096	-61.615
0.3097	-61.615
0.3098	-61.5845
0.3099	-61.5845
0.31	-61.615
0.3101	-61.615
0.3102	-61.615
0.3103	-61.5845
0.3104	-61.554
0.3105	-61.5234
0.3106	-61.5845
0.3107	-61.615
0.3108	-61.615
0.3109	-61.5845
0.311	-61.5845
0.3111	-61.554
0.3112	-61.4929
0.3113	-61.554
0.3114	-61.4929
0.3115	-61.4929
0.3116	-61.5845
0.3117	-61.554
0.3118	-61.5845
0.3119	-61.6455
0.312	-61.5845
0.3121	-61.5845
0.3122	-61.615
0.3123	-61.554
0.3124	-61.4929
0.3125	-61.5234
0.3126	-61.4929
0.3127	-61.4929
0.3128	-61.5234
0.3129	-61.4929
0.313	-61.4624
0.3131	-61.4624
0.3132	-61.4014
0.3133	-61.3403
0.3134	-61.4319
0.3135	-61.3708
0.3136	-61.3403
0.3137	-61.3708
0.3138	-61.4014
0.3139	-61.4014
0.314	-61.3403
0.3141	-61.3098
0.3142	-61.3403
0.3143	-61.3403
0.3144	-61.3403
0.3145	-61.3403
0.3146	-61.2793
0.3147	-61.2488
0.3148	-61.3403
0.3149	-61.3098
0.315	-61.3098
0.3151	-61.3403
0.3152	-61.3403
0.3153	-61.2793
0.3154	-61.3098
0.3155	-61.2793
0.3156	-61.2793
0.3157	-61.3098
0.3158	-61.2793
0.3159	-61.3098
0.316	-61.3403
0.3161	-61.3098
0.3162	-61.3403
0.3163	-61.2793
0.3164	-61.2183
0.3165	-61.1877
0.3166	-61.1877
0.3167	-61.1572
0.3168	-61.1572
0.3169	-61.2183
0.317	-61.1877
0.3171	-61.2488
0.3172	-61.2183
0.3173	-61.1572
0.3174	-61.1877
0.3175	-61.2183
0.3176	-61.2183
0.3177	-61.2183
0.3178	-61.2488
0.3179	-61.2488
0.318	-61.3098
0.3181	-61.3098
0.3182	-61.3098
0.3183	-61.3403
0.3184	-61.3098
0.3185	-61.2793
0.3186	-61.3708
0.3187	-61.3403
0.3188	-61.3708
0.3189	-61.4319
0.319	-61.4014
0.3191	-61.3708
0.3192	-61.4624
0.3193	-61.4319
0.3194	-61.3708
0.3195	-61.4319
0.3196	-61.4014
0.3197	-61.4624
0.3198	-61.4319
0.3199	-61.4014
0.32	-61.3708
0.3201	-61.3098
0.3202	-61.2488
0.3203	-61.3098
0.3204	-61.2793
0.3205	-61.2793
0.3206	-61.2793
0.3207	-61.3708
0.3208	-61.3708
0.3209	-61.3403
0.321	-61.3403
0.3211	-61.3708
0.3212	-61.4319
0.3213	-61.4014
0.3214	-61.3708
0.3215	-61.4014
0.3216	-61.3708
0.3217	-61.3708
0.3218	-61.3098
0.3219	-61.2183
0.322	-61.2183
0.3221	-61.3098
0.3222	-61.3098
0.3223	-61.2793
0.3224	-61.3403
0.3225	-61.3403
0.3226	-61.3708
0.3227	-61.4014
0.3228	-61.3708
0.3229	-61.4014
0.323	-61.3708
0.3231	-61.3403
0.3232	-61.3098
0.3233	-61.3708
0.3234	-61.3708
0.3235	-61.3098
0.3236	-61.3098
0.3237	-61.2488
0.3238	-61.3098
0.3239	-61.2488
0.324	-61.2183
0.3241	-61.2793
0.3242	-61.2183
0.3243	-61.1572
0.3244	-61.1877
0.3245	-61.1877
0.3246	-61.1572
0.3247	-61.1877
0.3248	-61.1877
0.3249	-61.1572
0.325	-61.2488
0.3251	-61.1877
0.3252	-61.1877
0.3253	-61.2183
0.3254	-61.2183
0.3255	-61.2488
0.3256	-61.2793
0.3257	-61.2183
0.3258	-61.1877
0.3259	-61.2183
0.326	-61.1877
0.3261	-61.2183
0.3262	-61.2488
0.3263	-61.2488
0.3264	-61.3708
0.3265	-61.3403
0.3266	-61.3098
0.3267	-61.3403
0.3268	-61.3708
0.3269	-61.4319
0.327	-61.4929
0.3271	-61.4929
0.3272	-61.4929
0.3273	-61.4624
0.3274	-61.4624
0.3275	-61.4624
0.3276	-61.4624
0.3277	-61.4624
0.3278	-61.4319
0.3279	-61.4624
0.328	-61.4014
0.3281	-61.3403
0.3282	-61.4624
0.3283	-61.4014
0.3284	-61.4014
0.3285	-61.4929
0.3286	-61.4014
0.3287	-61.4014
0.3288	-61.4624
0.3289	-61.4624
0.329	-61.4624
0.3291	-61.4929
0.3292	-61.4929
0.3293	-61.5234
0.3294	-61.676
0.3295	-61.615
0.3296	-61.615
0.3297	-61.615
0.3298	-61.7065
0.3299	-61.7065
0.33	-61.6455
0.3301	-61.5845
0.3302	-61.6455
0.3303	-61.676
0.3304	-61.7065
0.3305	-61.676
0.3306	-61.6455
0.3307	-61.6455
0.3308	-61.6455
0.3309	-61.615
0.331	-61.554
0.3311	-61.5845
0.3312	-61.5234
0.3313	-61.4929
0.3314	-61.554
0.3315	-61.5234
0.3316	-61.4929
0.3317	-61.554
0.3318	-61.5845
0.3319	-61.5845
0.332	-61.615
0.3321	-61.5234
0.3322	-61.554
0.3323	-61.5234
0.3324	-61.5234
0.3325	-61.4929
0.3326	-61.4624
0.3327	-61.4624
0.3328	-61.4014
0.3329	-61.4624
0.333	-61.4624
0.3331	-61.4929
0.3332	-61.4624
0.3333	-61.4319
0.3334	-61.4319
0.3335	-61.4624
0.3336	-61.4319
0.3337	-61.4319
0.3338	-61.4319
0.3339	-61.4014
0.334	-61.3708
0.3341	-61.3708
0.3342	-61.3403
0.3343	-61.3708
0.3344	-61.4014
0.3345	-61.4014
0.3346	-61.4624
0.3347	-61.4014
0.3348	-61.3708
0.3349	-61.3708
0.335	-61.3403
0.3351	-61.3403
0.3352	-61.4319
0.3353	-61.3403
0.3354	-61.2793
0.3355	-61.3098
0.3356	-61.2183
0.3357	-61.2488
0.3358	-61.2793
0.3359	-61.2793
0.336	-61.3403
0.3361	-61.4014
0.3362	-61.4014
0.3363	-61.4014
0.3364	-61.4319
0.3365	-61.4014
0.3366	-61.4929
0.3367	-61.4929
0.3368	-61.4624
0.3369	-61.5234
0.337	-61.4929
0.3371	-61.4624
0.3372	-61.4624
0.3373	-61.4319
0.3374	-61.4014
0.3375	-61.4319
0.3376	-61.3098
0.3377	-61.2793
0.3378	-61.3403
0.3379	-61.3708
0.338	-61.3708
0.3381	-61.4624
0.3382	-61.4319
0.3383	-61.4319
0.3384	-61.4929
0.3385	-61.4929
0.3386	-61.4319
0.3387	-61.5234
0.3388	-61.554
0.3389	-61.554
0.339	-61.6455
0.3391	-61.5845
0.3392	-61.5845
0.3393	-61.615
0.3394	-61.615
0.3395	-61.676
0.3396	-61.5845
0.3397	-61.5845
0.3398	-61.615
0.3399	-61.615
0.34	-61.6455
0.3401	-61.615
0.3402	-61.6455
0.3403	-61.615
0.3404	-61.6455
0.3405	-61.6455
0.3406	-61.5234
0.3407	-61.5845
0.3408	-61.615
0.3409	-61.6455
0.341	-61.676
0.3411	-61.676
0.3412	-61.6455
0.3413	-61.7371
0.3414	-61.7065
0.3415	-61.676
0.3416	-61.7676
0.3417	-61.676
0.3418	-61.6455
0.3419	-61.7676
0.342	-61.7065
0.3421	-61.7065
0.3422	-61.7981
0.3423	-61.7371
0.3424	-61.7981
0.3425	-61.7981
0.3426	-61.7981
0.3427	-61.7676
0.3428	-61.8591
0.3429	-61.7981
0.343	-61.7981
0.3431	-61.7981
0.3432	-61.8286
0.3433	-61.7981
0.3434	-61.8591
0.3435	-61.8286
0.3436	-61.8286
0.3437	-61.8286
0.3438	-61.8896
0.3439	-61.9507
0.344	-61.9202
0.3441	-61.8896
0.3442	-61.9507
0.3443	-61.9507
0.3444	-61.9812
0.3445	-62.0117
0.3446	-61.9812
0.3447	-62.0117
0.3448	-62.0728
0.3449	-62.0117
0.345	-62.0117
0.3451	-62.0728
0.3452	-62.1033
0.3453	-62.0728
0.3454	-62.1033
0.3455	-62.0117
0.3456	-62.0117
0.3457	-62.0117
0.3458	-62.0117
0.3459	-61.9507
0.346	-61.9202
0.3461	-61.9202
0.3462	-61.9812
0.3463	-62.0117
0.3464	-62.0117
0.3465	-62.0117
0.3466	-62.0117
0.3467	-62.0117
0.3468	-62.0422
0.3469	-62.0422
0.347	-62.0117
0.3471	-62.0728
0.3472	-62.1033
0.3473	-62.0728
0.3474	-62.1033
0.3475	-62.0422
0.3476	-62.0422
0.3477	-62.0422
0.3478	-62.0422
0.3479	-62.0117
0.348	-62.0422
0.3481	-62.0422
0.3482	-61.9812
0.3483	-62.0117
0.3484	-61.9812
0.3485	-62.0117
0.3486	-62.0728
0.3487	-61.9812
0.3488	-62.0117
0.3489	-62.0422
0.349	-62.0117
0.3491	-61.9507
0.3492	-61.9812
0.3493	-61.8896
0.3494	-61.8896
0.3495	-61.9507
0.3496	-61.9507
0.3497	-61.9202
0.3498	-61.9507
0.3499	-61.8896
0.35	-61.8896
0.3501	-61.8896
0.3502	-61.9202
0.3503	-61.8896
0.3504	-61.8896
0.3505	-61.8896
0.3506	-61.9202
0.3507	-61.9202
0.3508	-61.8896
0.3509	-61.9202
0.351	-61.9507
0.3511	-61.9507
0.3512	-61.9507
0.3513	-61.8896
0.3514	-61.8896
0.3515	-61.9202
0.3516	-61.8591
0.3517	-61.7981
0.3518	-61.8286
0.3519	-61.7371
0.352	-61.7676
0.3521	-61.7676
0.3522	-61.7676
0.3523	-61.676
0.3524	-61.7065
0.3525	-61.615
0.3526	-61.5845
0.3527	-61.554
0.3528	-61.4929
0.3529	-61.5234
0.353	-61.5234
0.3531	-61.4929
0.3532	-61.5234
0.3533	-61.5845
0.3534	-61.554
0.3535	-61.554
0.3536	-61.554
0.3537	-61.4929
0.3538	-61.4624
0.3539	-61.5234
0.354	-61.4624
0.3541	-61.4319
0.3542	-61.4624
0.3543	-61.4014
0.3544	-61.4319
0.3545	-61.3708
0.3546	-61.2793
0.3547	-61.3098
0.3548	-61.3098
0.3549	-61.2488
0.355	-61.1877
0.3551	-61.1267
0.3552	-61.1572
0.3553	-61.1877
0.3554	-61.2183
0.3555	-61.2183
0.3556	-61.2488
0.3557	-61.2793
0.3558	-61.3098
0.3559	-61.4014
0.356	-61.3708
0.3561	-61.4319
0.3562	-61.4624
0.3563	-61.4929
0.3564	-61.5234
0.3565	-61.4929
0.3566	-61.4319
0.3567	-61.4319
0.3568	-61.4624
0.3569	-61.4319
0.357	-61.4624
0.3571	-61.4929
0.3572	-61.4929
0.3573	-61.4929
0.3574	-61.4624
0.3575	-61.4929
0.3576	-61.5234
0.3577	-61.5234
0.3578	-61.4319
0.3579	-61.4929
0.358	-61.4929
0.3581	-61.5234
0.3582	-61.5845
0.3583	-61.554
0.3584	-61.5234
0.3585	-61.5845
0.3586	-61.554
0.3587	-61.5845
0.3588	-61.5845
0.3589	-61.4929
0.359	-61.4929
0.3591	-61.554
0.3592	-61.5234
0.3593	-61.554
0.3594	-61.554
0.3595	-61.5234
0.3596	-61.4929
0.3597	-61.5234
0.3598	-61.4929
0.3599	-61.4929
0.36	-61.5234
0.3601	-61.4319
0.3602	-61.4319
0.3603	-61.4319
0.3604	-61.4319
0.3605	-61.4624
0.3606	-61.4624
0.3607	-61.4624
0.3608	-61.4624
0.3609	-61.4624
0.361	-61.4624
0.3611	-61.4319
0.3612	-61.3708
0.3613	-61.3403
0.3614	-61.4319
0.3615	-61.4014
0.3616	-61.3708
0.3617	-61.4624
0.3618	-61.3708
0.3619	-61.3403
0.362	-61.4014
0.3621	-61.3708
0.3622	-61.4014
0.3623	-61.4624
0.3624	-61.4014
0.3625	-61.4319
0.3626	-61.4624
0.3627	-61.3708
0.3628	-61.4319
0.3629	-61.4014
0.363	-61.3098
0.3631	-61.3098
0.3632	-61.2793
0.3633	-61.2488
0.3634	-61.2183
0.3635	-61.2488
0.3636	-61.1877
0.3637	-61.1877
0.3638	-61.2183
0.3639	-61.1572
0.364	-61.1572
0.3641	-61.1267
0.3642	-61.0657
0.3643	-61.1267
0.3644	-61.1267
0.3645	-61.0962
0.3646	-61.1267
0.3647	-61.0657
0.3648	-61.1267
0.3649	-61.1267
0.365	-61.0962
0.3651	-61.0352
0.3652	-61.1267
0.3653	-61.1572
0.3654	-61.0962
0.3655	-61.1572
0.3656	-61.1572
0.3657	-61.1572
0.3658	-61.1877
0.3659	-61.0962
0.366	-61.1877
0.3661	-61.1572
0.3662	-61.0962
0.3663	-61.0962
0.3664	-61.1877
0.3665	-61.1572
0.3666	-61.1877
0.3667	-61.1877
0.3668	-61.1267
0.3669	-61.1572
0.367	-61.1572
0.3671	-61.1267
0.3672	-61.0352
0.3673	-61.0352
0.3674	-61.0352
0.3675	-61.0657
0.3676	-61.0962
0.3677	-61.0962
0.3678	-61.1572
0.3679	-61.1267
0.368	-61.1267
0.3681	-61.0657
0.3682	-61.0352
0.3683	-60.9741
0.3684	-60.9741
0.3685	-60.9436
0.3686	-60.9436
0.3687	-61.0352
0.3688	-61.0352
0.3689	-61.0046
0.369	-61.0046
0.3691	-60.9436
0.3692	-60.8826
0.3693	-60.9436
0.3694	-60.8826
0.3695	-60.8826
0.3696	-60.9131
0.3697	-60.8826
0.3698	-60.9436
0.3699	-60.9741
0.37	-60.9741
0.3701	-61.0046
0.3702	-60.9741
0.3703	-61.0046
0.3704	-61.0046
0.3705	-61.0352
0.3706	-61.0046
0.3707	-61.0962
0.3708	-61.0962
0.3709	-61.0352
0.371	-61.0657
0.3711	-61.0352
0.3712	-61.0657
0.3713	-61.0962
0.3714	-61.0657
0.3715	-61.0962
0.3716	-61.1267
0.3717	-61.1267
0.3718	-61.1877
0.3719	-61.2793
0.372	-61.2183
0.3721	-61.1877
0.3722	-61.2488
0.3723	-61.3098
0.3724	-61.2793
0.3725	-61.3403
0.3726	-61.3098
0.3727	-61.3403
0.3728	-61.3708
0.3729	-61.3403
0.373	-61.3708
0.3731	-61.4319
0.3732	-61.4319
0.3733	-61.4014
0.3734	-61.4319
0.3735	-61.4014
0.3736	-61.4624
0.3737	-61.4624
0.3738	-61.4014
0.3739	-61.3708
0.374	-61.3403
0.3741	-61.3098
0.3742	-61.2793
0.3743	-61.2793
0.3744	-61.3098
0.3745	-61.3403
0.3746	-61.2793
0.3747	-61.2488
0.3748	-61.3098
0.3749	-61.2793
0.375	-61.2488
0.3751	-61.3403
0.3752	-61.3098
0.3753	-61.3098
0.3754	-61.4624
0.3755	-61.4929
0.3756	-61.4929
0.3757	-61.4929
0.3758	-61.4624
0.3759	-61.4624
0.376	-61.4929
0.3761	-61.4624
0.3762	-61.4319
0.3763	-61.4929
0.3764	-61.4319
0.3765	-61.4929
0.3766	-61.5234
0.3767	-61.4929
0.3768	-61.4624
0.3769	-61.4929
0.377	-61.5845
0.3771	-61.5845
0.3772	-61.6455
0.3773	-61.615
0.3774	-61.5845
0.3775	-61.615
0.3776	-61.554
0.3777	-61.554
0.3778	-61.554
0.3779	-61.5234
0.378	-61.5845
0.3781	-61.554
0.3782	-61.5845
0.3783	-61.5845
0.3784	-61.5234
0.3785	-61.5234
0.3786	-61.615
0.3787	-61.5845
0.3788	-61.615
0.3789	-61.7065
0.379	-61.676
0.3791	-61.676
0.3792	-61.7676
0.3793	-61.7676
0.3794	-61.7981
0.3795	-61.8286
0.3796	-61.7371
0.3797	-61.7676
0.3798	-61.8286
0.3799	-61.8286
0.38	-61.7676
0.3801	-61.8591
0.3802	-61.8286
0.3803	-61.8286
0.3804	-61.8591
0.3805	-61.7676
0.3806	-61.7981
0.3807	-61.8286
0.3808	-61.8286
0.3809	-61.8286
0.381	-61.8591
0.3811	-61.7981
0.3812	-61.8286
0.3813	-61.7981
0.3814	-61.7981
0.3815	-61.7676
0.3816	-61.7371
0.3817	-61.7065
0.3818	-61.8286
0.3819	-61.7676
0.382	-61.8286
0.3821	-61.8286
0.3822	-61.8286
0.3823	-61.8286
0.3824	-61.8591
0.3825	-61.7676
0.3826	-61.8286
0.3827	-61.8591
0.3828	-61.8591
0.3829	-61.8591
0.383	-61.8896
0.3831	-61.8286
0.3832	-61.8286
0.3833	-61.8591
0.3834	-61.7981
0.3835	-61.8286
0.3836	-61.7981
0.3837	-61.7676
0.3838	-61.7676
0.3839	-61.7981
0.384	-61.7676
0.3841	-61.7676
0.3842	-61.7981
0.3843	-61.7981
0.3844	-61.7676
0.3845	-61.7676
0.3846	-61.7371
0.3847	-61.7676
0.3848	-61.676
0.3849	-61.615
0.385	-61.6455
0.3851	-61.615
0.3852	-61.6455
0.3853	-61.5845
0.3854	-61.615
0.3855	-61.615
0.3856	-61.6455
0.3857	-61.615
0.3858	-61.6455
0.3859	-61.676
0.386	-61.676
0.3861	-61.7371
0.3862	-61.7676
0.3863	-61.7676
0.3864	-61.6455
0.3865	-61.676
0.3866	-61.7065
0.3867	-61.676
0.3868	-61.7065
0.3869	-61.615
0.387	-61.6455
0.3871	-61.7065
0.3872	-61.6455
0.3873	-61.615
0.3874	-61.7065
0.3875	-61.615
0.3876	-61.676
0.3877	-61.676
0.3878	-61.7371
0.3879	-61.7676
0.388	-61.7981
0.3881	-61.7371
0.3882	-61.7981
0.3883	-61.7371
0.3884	-61.7676
0.3885	-61.7676
0.3886	-61.7371
0.3887	-61.7371
0.3888	-61.7676
0.3889	-61.7371
0.389	-61.7065
0.3891	-61.7065
0.3892	-61.7065
0.3893	-61.7065
0.3894	-61.7676
0.3895	-61.7371
0.3896	-61.7065
0.3897	-61.7676
0.3898	-61.676
0.3899	-61.6455
0.39	-61.676
0.3901	-61.6455
0.3902	-61.615
0.3903	-61.676
0.3904	-61.6455
0.3905	-61.615
0.3906	-61.6455
0.3907	-61.5845
0.3908	-61.5845
0.3909	-61.6455
0.391	-61.615
0.3911	-61.6455
0.3912	-61.5845
0.3913	-61.6455
0.3914	-61.676
0.3915	-61.676
0.3916	-61.676
0.3917	-61.676
0.3918	-61.5845
0.3919	-61.5845
0.392	-61.5845
0.3921	-61.5845
0.3922	-61.554
0.3923	-61.6455
0.3924	-61.615
0.3925	-61.5845
0.3926	-61.615
0.3927	-61.615
0.3928	-61.5845
0.3929	-61.615
0.393	-61.5845
0.3931	-61.554
0.3932	-61.615
0.3933	-61.5845
0.3934	-61.5845
0.3935	-61.615
0.3936	-61.554
0.3937	-61.554
0.3938	-61.5234
0.3939	-61.554
0.394	-61.554
0.3941	-61.5845
0.3942	-61.5845
0.3943	-61.615
0.3944	-61.554
0.3945	-61.554
0.3946	-61.554
0.3947	-61.554
0.3948	-61.5845
0.3949	-61.554
0.395	-61.4624
0.3951	-61.4929
0.3952	-61.4929
0.3953	-61.4929
0.3954	-61.4624
0.3955	-61.4624
0.3956	-61.4624
0.3957	-61.4319
0.3958	-61.5234
0.3959	-61.4929
0.396	-61.5234
0.3961	-61.615
0.3962	-61.615
0.3963	-61.5845
0.3964	-61.5845
0.3965	-61.554
0.3966	-61.5234
0.3967	-61.615
0.3968	-61.5234
0.3969	-61.5234
0.397	-61.4929
0.3971	-61.4624
0.3972	-61.4014
0.3973	-61.4319
0.3974	-61.4319
0.3975	-61.4624
0.3976	-61.4319
0.3977	-61.4319
0.3978	-61.4624
0.3979	-61.4624
0.398	-61.4014
0.3981	-61.4014
0.3982	-61.4319
0.3983	-61.4014
0.3984	-61.4014
0.3985	-61.3708
0.3986	-61.4014
0.3987	-61.4319
0.3988	-61.4319
0.3989	-61.4319
0.399	-61.4929
0.3991	-61.4929
0.3992	-61.4624
0.3993	-61.4929
0.3994	-61.5234
0.3995	-61.4624
0.3996	-61.554
0.3997	-61.4624
0.3998	-61.4014
0.3999	-61.4624
0.4	-61.4319
0.4001	-61.4624
0.4002	-61.4929
0.4003	-61.4624
0.4004	-61.4319
0.4005	-61.4929
0.4006	-61.4624
0.4007	-61.5234
0.4008	-61.554
0.4009	-61.554
0.401	-61.5845
0.4011	-61.5845
0.4012	-61.5845
0.4013	-61.615
0.4014	-61.6455
0.4015	-61.615
0.4016	-61.615
0.4017	-61.615
0.4018	-61.554
0.4019	-61.615
0.402	-61.6455
0.4021	-61.615
0.4022	-61.6455
0.4023	-61.6455
0.4024	-61.6455
0.4025	-61.7371
0.4026	-61.7371
0.4027	-61.7371
0.4028	-61.7981
0.4029	-61.7981
0.403	-61.7981
0.4031	-61.8286
0.4032	-61.7371
0.4033	-61.7371
0.4034	-61.8286
0.4035	-61.7371
0.4036	-61.7676
0.4037	-61.7981
0.4038	-61.7371
0.4039	-61.676
0.404	-61.7981
0.4041	-61.7981
0.4042	-61.7371
0.4043	-61.7676
0.4044	-61.7676
0.4045	-61.7676
0.4046	-61.7371
0.4047	-61.7065
0.4048	-61.7065
0.4049	-61.676
0.405	-61.676
0.4051	-61.7065
0.4052	-61.6455
0.4053	-61.6455
0.4054	-61.7676
0.4055	-61.676
0.4056	-61.7065
0.4057	-61.7676
0.4058	-61.7676
0.4059	-61.7676
0.406	-61.7981
0.4061	-61.7676
0.4062	-61.7981
0.4063	-61.8591
0.4064	-61.8286
0.4065	-61.7981
0.4066	-61.7981
0.4067	-61.8286
0.4068	-61.7981
0.4069	-61.7065
0.407	-61.6455
0.4071	-61.676
0.4072	-61.7371
0.4073	-61.7065
0.4074	-61.6455
0.4075	-61.7065
0.4076	-61.6455
0.4077	-61.6455
0.4078	-61.6455
0.4079	-61.676
0.408	-61.7371
0.4081	-61.7981
0.4082	-61.7676
0.4083	-61.7981
0.4084	-61.7981
0.4085	-61.7981
0.4086	-61.7981
0.4087	-61.7676
0.4088	-61.7371
0.4089	-61.7676
0.409	-61.7065
0.4091	-61.676
0.4092	-61.7371
0.4093	-61.7065
0.4094	-61.7371
0.4095	-61.7371
0.4096	-61.7065
0.4097	-61.7371
0.4098	-61.7981
0.4099	-61.7676
0.41	-61.7676
0.4101	-61.8896
0.4102	-61.8896
0.4103	-61.8286
0.4104	-61.8896
0.4105	-61.9202
0.4106	-61.8896
0.4107	-61.9202
0.4108	-61.8896
0.4109	-61.8591
0.411	-61.8896
0.4111	-61.8591
0.4112	-61.8896
0.4113	-61.8591
0.4114	-61.8286
0.4115	-61.8591
0.4116	-61.8591
0.4117	-61.8286
0.4118	-61.7676
0.4119	-61.7981
0.412	-61.7676
0.4121	-61.8591
0.4122	-61.9507
0.4123	-61.9202
0.4124	-61.9202
0.4125	-61.8896
0.4126	-61.8896
0.4127	-61.9812
0.4128	-61.9507
0.4129	-61.8896
0.413	-61.9812
0.4131	-61.9202
0.4132	-61.9202
0.4133	-61.9812
0.4134	-61.9507
0.4135	-61.9202
0.4136	-61.9812
0.4137	-61.9507
0.4138	-61.8896
0.4139	-61.9507
0.414	-61.9812
0.4141	-61.9812
0.4142	-61.9812
0.4143	-62.0117
0.4144	-62.0117
0.4145	-62.0728
0.4146	-62.0117
0.4147	-62.0117
0.4148	-62.1033
0.4149	-62.0422
0.415	-62.1033
0.4151	-62.0728
0.4152	-62.0728
0.4153	-62.1033
0.4154	-62.0728
0.4155	-62.0728
0.4156	-62.1033
0.4157	-62.0728
0.4158	-62.0728
0.4159	-62.0728
0.416	-62.0422
0.4161	-61.9507
0.4162	-61.9507
0.4163	-61.8896
0.4164	-61.8896
0.4165	-61.9812
0.4166	-61.9202
0.4167	-61.8896
0.4168	-61.9202
0.4169	-61.8591
0.417	-61.8896
0.4171	-61.8896
0.4172	-61.8286
0.4173	-61.8591
0.4174	-61.9202
0.4175	-61.8591
0.4176	-61.8896
0.4177	-61.9507
0.4178	-61.9202
0.4179	-61.9202
0.418	-61.9507
0.4181	-61.9202
0.4182	-61.9202
0.4183	-61.9812
0.4184	-61.9507
0.4185	-62.0117
0.4186	-62.0117
0.4187	-61.9507
0.4188	-62.0117
0.4189	-61.9812
0.419	-62.0422
0.4191	-62.1338
0.4192	-62.0422
0.4193	-62.0422
0.4194	-62.1033
0.4195	-62.0728
0.4196	-62.0117
0.4197	-62.1033
0.4198	-62.0728
0.4199	-62.0728
0.42	-62.1033
0.4201	-62.0728
0.4202	-62.0728
0.4203	-62.1338
0.4204	-62.0422
0.4205	-62.0728
0.4206	-62.1033
0.4207	-62.0728
0.4208	-62.0728
0.4209	-62.0728
0.421	-62.0422
0.4211	-62.0117
0.4212	-62.0422
0.4213	-62.0117
0.4214	-62.0117
0.4215	-62.0117
0.4216	-61.9507
0.4217	-62.0117
0.4218	-62.1033
0.4219	-62.0422
0.422	-62.0422
0.4221	-62.0422
0.4222	-62.0728
0.4223	-62.0728
0.4224	-62.0728
0.4225	-62.1338
0.4226	-62.1338
0.4227	-62.1643
0.4228	-62.1643
0.4229	-62.2253
0.423	-62.2253
0.4231	-62.1948
0.4232	-62.2864
0.4233	-62.2253
0.4234	-62.2559
0.4235	-62.2864
0.4236	-62.2559
0.4237	-62.2253
0.4238	-62.2559
0.4239	-62.2559
0.424	-62.1948
0.4241	-62.2864
0.4242	-62.2559
0.4243	-62.2864
0.4244	-62.3169
0.4245	-62.2559
0.4246	-62.3169
0.4247	-62.3474
0.4248	-62.3169
0.4249	-62.2864
0.425	-62.4084
0.4251	-62.3474
0.4252	-62.3169
0.4253	-62.3474
0.4254	-62.3169
0.4255	-62.3169
0.4256	-62.3474
0.4257	-62.3474
0.4258	-62.2864
0.4259	-62.2559
0.426	-62.2253
0.4261	-62.3169
0.4262	-62.3169
0.4263	-62.3169
0.4264	-62.3474
0.4265	-62.2864
0.4266	-62.3169
0.4267	-62.4084
0.4268	-62.3169
0.4269	-62.2864
0.427	-62.3474
0.4271	-62.3779
0.4272	-62.3779
0.4273	-62.4084
0.4274	-62.4084
0.4275	-62.3779
0.4276	-62.3779
0.4277	-62.4084
0.4278	-62.3779
0.4279	-62.439
0.428	-62.4695
0.4281	-62.439
0.4282	-62.5
0.4283	-62.439
0.4284	-62.4695
0.4285	-62.5305
0.4286	-62.5
0.4287	-62.5
0.4288	-62.561
0.4289	-62.561
0.429	-62.5305
0.4291	-62.5
0.4292	-62.5305
0.4293	-62.561
0.4294	-62.561
0.4295	-62.561
0.4296	-62.5916
0.4297	-62.5916
0.4298	-62.561
0.4299	-62.6221
0.43	-62.5305
0.4301	-62.4695
0.4302	-62.5305
0.4303	-62.4695
0.4304	-62.5
0.4305	-62.5
0.4306	-62.4084
0.4307	-62.4084
0.4308	-62.4695
0.4309	-62.4695
0.431	-62.5
0.4311	-62.5
0.4312	-62.5
0.4313	-62.561
0.4314	-62.5916
0.4315	-62.5916
0.4316	-62.5916
0.4317	-62.5305
0.4318	-62.5305
0.4319	-62.5305
0.432	-62.4695
0.4321	-62.4084
0.4322	-62.439
0.4323	-62.439
0.4324	-62.439
0.4325	-62.439
0.4326	-62.4084
0.4327	-62.3779
0.4328	-62.3779
0.4329	-62.3169
0.433	-62.2559
0.4331	-62.2864
0.4332	-62.2864
0.4333	-62.2864
0.4334	-62.3169
0.4335	-62.2559
0.4336	-62.3169
0.4337	-62.3779
0.4338	-62.2864
0.4339	-62.3474
0.434	-62.439
0.4341	-62.439
0.4342	-62.4695
0.4343	-62.4695
0.4344	-62.439
0.4345	-62.3779
0.4346	-62.439
0.4347	-62.439
0.4348	-62.4084
0.4349	-62.4084
0.435	-62.3779
0.4351	-62.439
0.4352	-62.4695
0.4353	-62.439
0.4354	-62.439
0.4355	-62.3779
0.4356	-62.3779
0.4357	-62.439
0.4358	-62.4084
0.4359	-62.439
0.436	-62.439
0.4361	-62.4084
0.4362	-62.4695
0.4363	-62.4695
0.4364	-62.4695
0.4365	-62.439
0.4366	-62.5
0.4367	-62.5
0.4368	-62.5
0.4369	-62.5305
0.437	-62.4695
0.4371	-62.4695
0.4372	-62.5
0.4373	-62.4695
0.4374	-62.5
0.4375	-62.4695
0.4376	-62.439
0.4377	-62.439
0.4378	-62.4695
0.4379	-62.3779
0.438	-62.439
0.4381	-62.439
0.4382	-62.439
0.4383	-62.439
0.4384	-62.439
0.4385	-62.439
0.4386	-62.5
0.4387	-62.4695
0.4388	-62.5
0.4389	-62.5
0.439	-62.5
0.4391	-62.5916
0.4392	-62.5305
0.4393	-62.561
0.4394	-62.5305
0.4395	-62.6221
0.4396	-62.5305
0.4397	-62.5
0.4398	-62.561
0.4399	-62.561
0.44	-62.561
0.4401	-62.561
0.4402	-62.5305
0.4403	-62.5916
0.4404	-62.5916
0.4405	-62.5916
0.4406	-62.5916
0.4407	-62.5916
0.4408	-62.5916
0.4409	-62.5916
0.441	-62.6526
0.4411	-62.5916
0.4412	-62.6221
0.4413	-62.6221
0.4414	-62.5916
0.4415	-62.6526
0.4416	-62.6221
0.4417	-62.5305
0.4418	-62.561
0.4419	-62.561
0.442	-62.5916
0.4421	-62.6526
0.4422	-62.561
0.4423	-62.561
0.4424	-62.561
0.4425	-62.561
0.4426	-62.5305
0.4427	-62.5916
0.4428	-62.561
0.4429	-62.5916
0.443	-62.5916
0.4431	-62.561
0.4432	-62.5305
0.4433	-62.561
0.4434	-62.5305
0.4435	-62.5916
0.4436	-62.6526
0.4437	-62.6221
0.4438	-62.6831
0.4439	-62.6831
0.444	-62.6221
0.4441	-62.6526
0.4442	-62.6221
0.4443	-62.561
0.4444	-62.5916
0.4445	-62.6221
0.4446	-62.6221
0.4447	-62.6221
0.4448	-62.6526
0.4449	-62.6221
0.445	-62.6221
0.4451	-62.6526
0.4452	-62.7136
0.4453	-62.6221
0.4454	-62.6526
0.4455	-62.6831
0.4456	-62.6831
0.4457	-62.7136
0.4458	-62.7136
0.4459	-62.7136
0.446	-62.6831
0.4461	-62.6831
0.4462	-62.7441
0.4463	-62.7441
0.4464	-62.6831
0.4465	-62.7441
0.4466	-62.7136
0.4467	-62.6831
0.4468	-62.7747
0.4469	-62.7441
0.447	-62.6526
0.4471	-62.7136
0.4472	-62.6221
0.4473	-62.6526
0.4474	-62.6831
0.4475	-62.6221
0.4476	-62.6221
0.4477	-62.6831
0.4478	-62.6526
0.4479	-62.6526
0.448	-62.6526
0.4481	-62.6221
0.4482	-62.5916
0.4483	-62.5916
0.4484	-62.5916
0.4485	-62.6221
0.4486	-62.6221
0.4487	-62.561
0.4488	-62.5916
0.4489	-62.5916
0.449	-62.5916
0.4491	-62.6526
0.4492	-62.5916
0.4493	-62.5305
0.4494	-62.561
0.4495	-62.5
0.4496	-62.4695
0.4497	-62.5305
0.4498	-62.4695
0.4499	-62.439
0.45	-62.4695
0.4501	-62.439
0.4502	-62.4084
0.4503	-62.4695
0.4504	-62.4084
0.4505	-62.439
0.4506	-62.5
0.4507	-62.439
0.4508	-62.4084
0.4509	-62.5
0.451	-62.439
0.4511	-62.439
0.4512	-62.439
0.4513	-62.4084
0.4514	-62.3779
0.4515	-62.4084
0.4516	-62.4084
0.4517	-62.4084
0.4518	-62.3779
0.4519	-62.4084
0.452	-62.439
0.4521	-62.4084
0.4522	-62.439
0.4523	-62.439
0.4524	-62.4084
0.4525	-62.4084
0.4526	-62.4084
0.4527	-62.439
0.4528	-62.4695
0.4529	-62.5
0.453	-62.4695
0.4531	-62.4084
0.4532	-62.439
0.4533	-62.439
0.4534	-62.439
0.4535	-62.4695
0.4536	-62.3779
0.4537	-62.4084
0.4538	-62.439
0.4539	-62.4084
0.454	-62.4084
0.4541	-62.4695
0.4542	-62.4084
0.4543	-62.439
0.4544	-62.4695
0.4545	-62.4695
0.4546	-62.4084
0.4547	-62.439
0.4548	-62.3474
0.4549	-62.3474
0.455	-62.3779
0.4551	-62.3779
0.4552	-62.3779
0.4553	-62.4084
0.4554	-62.4084
0.4555	-62.4695
0.4556	-62.439
0.4557	-62.439
0.4558	-62.439
0.4559	-62.439
0.456	-62.4084
0.4561	-62.4084
0.4562	-62.4084
0.4563	-62.4084
0.4564	-62.4695
0.4565	-62.3779
0.4566	-62.3169
0.4567	-62.3779
0.4568	-62.3169
0.4569	-62.3169
0.457	-62.3779
0.4571	-62.2559
0.4572	-62.2559
0.4573	-62.3474
0.4574	-62.2559
0.4575	-62.2559
0.4576	-62.2559
0.4577	-62.2559
0.4578	-62.2559
0.4579	-62.2864
0.458	-62.2253
0.4581	-62.2559
0.4582	-62.3474
0.4583	-62.2864
0.4584	-62.3169
0.4585	-62.3169
0.4586	-62.3779
0.4587	-62.4084
0.4588	-62.439
0.4589	-62.4084
0.459	-62.4084
0.4591	-62.5
0.4592	-62.439
0.4593	-62.439
0.4594	-62.4084
0.4595	-62.4084
0.4596	-62.4084
0.4597	-62.3474
0.4598	-62.3779
0.4599	-62.439
0.46	-62.3779
0.4601	-62.3779
0.4602	-62.4084
0.4603	-62.3779
0.4604	-62.3169
0.4605	-62.3474
0.4606	-62.2864
0.4607	-62.2864
0.4608	-62.3169
0.4609	-62.1948
0.461	-62.1948
0.4611	-62.2864
0.4612	-62.2253
0.4613	-62.1643
0.4614	-62.1033
0.4615	-62.0728
0.4616	-62.1033
0.4617	-62.1033
0.4618	-62.1033
0.4619	-62.1338
0.462	-62.1033
0.4621	-62.1338
0.4622	-62.1643
0.4623	-62.1338
0.4624	-62.1033
0.4625	-62.1643
0.4626	-62.1948
0.4627	-62.1948
0.4628	-62.2253
0.4629	-62.2253
0.463	-62.2253
0.4631	-62.2253
0.4632	-62.2253
0.4633	-62.1948
0.4634	-62.2253
0.4635	-62.1643
0.4636	-62.1338
0.4637	-62.1338
0.4638	-62.1033
0.4639	-62.0422
0.464	-62.1033
0.4641	-62.0117
0.4642	-62.0422
0.4643	-62.0728
0.4644	-62.0422
0.4645	-62.0422
0.4646	-62.1033
0.4647	-62.0728
0.4648	-62.1338
0.4649	-62.1338
0.465	-62.1033
0.4651	-62.0422
0.4652	-62.0728
0.4653	-62.0422
0.4654	-62.1033
0.4655	-62.1033
0.4656	-62.0728
0.4657	-62.0422
0.4658	-62.0117
0.4659	-62.0117
0.466	-62.0422
0.4661	-61.9812
0.4662	-61.9202
0.4663	-61.9812
0.4664	-62.0422
0.4665	-62.0422
0.4666	-62.0728
0.4667	-62.0117
0.4668	-62.0117
0.4669	-62.0422
0.467	-62.0117
0.4671	-62.0117
0.4672	-62.0422
0.4673	-62.0422
0.4674	-62.0422
0.4675	-62.0422
0.4676	-62.0117
0.4677	-62.0117
0.4678	-62.0117
0.4679	-61.9812
0.468	-62.0117
0.4681	-62.0117
0.4682	-61.9507
0.4683	-61.9202
0.4684	-61.9507
0.4685	-61.9507
0.4686	-61.9202
0.4687	-61.8896
0.4688	-61.8591
0.4689	-61.8286
0.469	-61.8591
0.4691	-61.8286
0.4692	-61.7981
0.4693	-61.7981
0.4694	-61.7676
0.4695	-61.7676
0.4696	-61.7981
0.4697	-61.7676
0.4698	-61.8591
0.4699	-61.8286
0.47	-61.7981
0.4701	-61.8896
0.4702	-61.8286
0.4703	-61.8591
0.4704	-61.8896
0.4705	-61.8591
0.4706	-61.8591
0.4707	-61.8896
0.4708	-61.8591
0.4709	-61.8286
0.471	-61.8286
0.4711	-61.7676
0.4712	-61.7676
0.4713	-61.7371
0.4714	-61.7065
0.4715	-61.676
0.4716	-61.7371
0.4717	-61.7371
0.4718	-61.7676
0.4719	-61.8286
0.472	-61.7371
0.4721	-61.8286
0.4722	-61.7981
0.4723	-61.7981
0.4724	-61.9202
0.4725	-61.8591
0.4726	-61.8591
0.4727	-61.9202
0.4728	-61.8896
0.4729	-61.9202
0.473	-61.9202
0.4731	-61.9202
0.4732	-61.8896
0.4733	-61.9812
0.4734	-61.9812
0.4735	-61.9812
0.4736	-62.0728
0.4737	-62.0422
0.4738	-62.0422
0.4739	-62.1033
0.474	-62.0728
0.4741	-62.1338
0.4742	-62.1643
0.4743	-62.1338
0.4744	-62.1338
0.4745	-62.1033
0.4746	-62.1033
0.4747	-62.1033
0.4748	-62.1338
0.4749	-62.1338
0.475	-62.1338
0.4751	-62.1948
0.4752	-62.1338
0.4753	-62.1338
0.4754	-62.1643
0.4755	-62.1033
0.4756	-62.1643
0.4757	-62.1338
0.4758	-62.1643
0.4759	-62.1338
0.476	-62.1338
0.4761	-62.1643
0.4762	-62.2253
0.4763	-62.1643
0.4764	-62.1338
0.4765	-62.1338
0.4766	-62.1338
0.4767	-62.0422
0.4768	-62.0728
0.4769	-62.0422
0.477	-61.9812
0.4771	-62.0422
0.4772	-61.9812
0.4773	-62.1033
0.4774	-62.0728
0.4775	-62.1033
0.4776	-62.0422
0.4777	-62.1033
0.4778	-62.0117
0.4779	-62.0422
0.478	-62.1033
0.4781	-62.1033
0.4782	-62.1338
0.4783	-62.1338
0.4784	-62.1033
0.4785	-62.1338
0.4786	-62.1338
0.4787	-62.1338
0.4788	-62.1643
0.4789	-62.1338
0.479	-62.1033
0.4791	-62.1338
0.4792	-62.1643
0.4793	-62.1948
0.4794	-62.2253
0.4795	-62.1338
0.4796	-62.1338
0.4797	-62.1948
0.4798	-62.1338
0.4799	-62.1033
0.48	-62.1338
0.4801	-62.0422
0.4802	-62.0422
0.4803	-62.0728
0.4804	-62.0422
0.4805	-62.0117
0.4806	-62.1033
0.4807	-62.0728
0.4808	-62.0422
0.4809	-62.0422
0.481	-61.9812
0.4811	-62.0117
0.4812	-62.0728
0.4813	-62.0728
0.4814	-62.0728
0.4815	-62.0728
0.4816	-62.0422
0.4817	-62.0728
0.4818	-62.1338
0.4819	-62.1643
0.482	-62.1643
0.4821	-62.1948
0.4822	-62.1948
0.4823	-62.1948
0.4824	-62.2559
0.4825	-62.2253
0.4826	-62.2253
0.4827	-62.1643
0.4828	-62.2253
0.4829	-62.2864
0.483	-62.2559
0.4831	-62.2559
0.4832	-62.2559
0.4833	-62.2253
0.4834	-62.2559
0.4835	-62.2864
0.4836	-62.2253
0.4837	-62.1948
0.4838	-62.2559
0.4839	-62.2253
0.484	-62.2559
0.4841	-62.2864
0.4842	-62.2253
0.4843	-62.2559
0.4844	-62.2864
0.4845	-62.2559
0.4846	-62.2559
0.4847	-62.2864
0.4848	-62.2559
0.4849	-62.2559
0.485	-62.3169
0.4851	-62.2559
0.4852	-62.2864
0.4853	-62.2559
0.4854	-62.1643
0.4855	-62.2253
0.4856	-62.2559
0.4857	-62.2864
0.4858	-62.2864
0.4859	-62.3169
0.486	-62.3169
0.4861	-62.3169
0.4862	-62.3474
0.4863	-62.3169
0.4864	-62.4084
0.4865	-62.439
0.4866	-62.4084
0.4867	-62.4695
0.4868	-62.4084
0.4869	-62.4084
0.487	-62.439
0.4871	-62.4084
0.4872	-62.3779
0.4873	-62.4695
0.4874	-62.3779
0.4875	-62.3779
0.4876	-62.4084
0.4877	-62.3474
0.4878	-62.3474
0.4879	-62.3779
0.488	-62.439
0.4881	-62.4695
0.4882	-62.5
0.4883	-62.4695
0.4884	-62.4695
0.4885	-62.5305
0.4886	-62.4695
0.4887	-62.5
0.4888	-62.5305
0.4889	-62.4695
0.489	-62.5
0.4891	-62.5305
0.4892	-62.5305
0.4893	-62.5305
0.4894	-62.5305
0.4895	-62.561
0.4896	-62.5305
0.4897	-62.4695
0.4898	-62.439
0.4899	-62.5
0.49	-62.5305
0.4901	-62.4695
0.4902	-62.5305
0.4903	-62.5305
0.4904	-62.561
0.4905	-62.5916
0.4906	-62.5916
0.4907	-62.5916
0.4908	-62.6831
0.4909	-62.6831
0.491	-62.6526
0.4911	-62.6831
0.4912	-62.6526
0.4913	-62.6831
0.4914	-62.7136
0.4915	-62.7136
0.4916	-62.7136
0.4917	-62.7747
0.4918	-62.7747
0.4919	-62.7441
0.492	-62.8357
0.4921	-62.7136
0.4922	-62.6831
0.4923	-62.7441
0.4924	-62.7136
0.4925	-62.7441
0.4926	-62.7136
0.4927	-62.7136
0.4928	-62.7747
0.4929	-62.7441
0.493	-62.7441
0.4931	-62.7441
0.4932	-62.6831
0.4933	-62.6831
0.4934	-62.7441
0.4935	-62.7441
0.4936	-62.7747
0.4937	-62.8357
0.4938	-62.8052
0.4939	-62.7441
0.494	-62.7747
0.4941	-62.7747
0.4942	-62.7747
0.4943	-62.8052
0.4944	-62.6831
0.4945	-62.6831
0.4946	-62.7136
0.4947	-62.6526
0.4948	-62.7136
0.4949	-62.6831
0.495	-62.6221
0.4951	-62.6526
0.4952	-62.6831
0.4953	-62.6831
0.4954	-62.6831
0.4955	-62.6831
0.4956	-62.6526
0.4957	-62.6221
0.4958	-62.6526
0.4959	-62.5305
0.496	-62.5305
0.4961	-62.561
0.4962	-62.5916
0.4963	-62.6221
0.4964	-62.5916
0.4965	-62.5916
0.4966	-62.6526
0.4967	-62.6221
0.4968	-62.6221
0.4969	-62.6831
0.497	-62.6526
0.4971	-62.5916
0.4972	-62.5916
0.4973	-62.5916
0.4974	-62.561
0.4975	-62.561
0.4976	-62.5305
0.4977	-62.5305
0.4978	-62.5305
0.4979	-62.5305
0.498	-62.5916
0.4981	-62.561
0.4982	-62.561
0.4983	-62.561
0.4984	-62.5305
0.4985	-62.4695
0.4986	-62.5305
0.4987	-62.561
0.4988	-62.561
0.4989	-62.5916
0.499	-62.561
0.4991	-62.5305
0.4992	-62.5305
0.4993	-62.5305
0.4994	-62.5
0.4995	-62.4695
0.4996	-62.4695
0.4997	-62.439
0.4998	-62.439
0.4999	-62.3779
0.5	-62.3474
0.5001	-62.439
0.5002	-62.4084
0.5003	-62.3779
0.5004	-62.3474
0.5005	-62.2559
0.5006	-62.3169
0.5007	-62.3169
0.5008	-62.3169
0.5009	-62.2559
0.501	-62.2864
0.5011	-62.2559
0.5012	-62.1948
0.5013	-62.2864
0.5014	-62.2253
0.5015	-62.2253
0.5016	-62.2559
0.5017	-62.2559
0.5018	-62.2559
0.5019	-62.2559
0.502	-62.2559
0.5021	-62.2864
0.5022	-62.3169
0.5023	-62.2864
0.5024	-62.2864
0.5025	-62.3474
0.5026	-62.2864
0.5027	-62.2559
0.5028	-62.2864
0.5029	-62.2559
0.503	-62.2864
0.5031	-62.2253
0.5032	-62.2559
0.5033	-62.3169
0.5034	-62.2559
0.5035	-62.2864
0.5036	-62.3169
0.5037	-62.2559
0.5038	-62.2253
0.5039	-62.2864
0.504	-62.2559
0.5041	-62.1948
0.5042	-62.2253
0.5043	-62.1643
0.5044	-62.1643
0.5045	-62.1948
0.5046	-62.1643
0.5047	-62.0728
0.5048	-62.1643
0.5049	-62.1338
0.505	-62.1033
0.5051	-62.1338
0.5052	-62.1033
0.5053	-62.1338
0.5054	-62.2253
0.5055	-62.1948
0.5056	-62.1948
0.5057	-62.1948
0.5058	-62.1338
0.5059	-62.1643
0.506	-62.1643
0.5061	-62.1338
0.5062	-62.1948
0.5063	-62.1643
0.5064	-62.1643
0.5065	-62.2559
0.5066	-62.1643
0.5067	-62.1338
0.5068	-62.1948
0.5069	-62.2253
0.507	-62.2253
0.5071	-62.2864
0.5072	-62.1948
0.5073	-62.1338
0.5074	-62.2253
0.5075	-62.1948
0.5076	-62.1948
0.5077	-62.2253
0.5078	-62.2559
0.5079	-62.2559
0.508	-62.2864
0.5081	-62.2864
0.5082	-62.3169
0.5083	-62.3169
0.5084	-62.2864
0.5085	-62.2559
0.5086	-62.2559
0.5087	-62.2253
0.5088	-62.1948
0.5089	-62.1948
0.509	-62.1643
0.5091	-62.1643
0.5092	-62.2253
0.5093	-62.2559
0.5094	-62.2559
0.5095	-62.2253
0.5096	-62.1643
0.5097	-62.2253
0.5098	-62.2864
0.5099	-62.2864
0.51	-62.3169
0.5101	-62.2559
0.5102	-62.2253
0.5103	-62.2864
0.5104	-62.1948
0.5105	-62.2253
0.5106	-62.2864
0.5107	-62.2559
0.5108	-62.1948
0.5109	-62.2253
0.511	-62.2253
0.5111	-62.1948
0.5112	-62.2253
0.5113	-62.1643
0.5114	-62.1338
0.5115	-62.1643
0.5116	-62.1643
0.5117	-62.1643
0.5118	-62.1948
0.5119	-62.1338
0.512	-62.1948
0.5121	-62.1948
0.5122	-62.2253
0.5123	-62.2253
0.5124	-62.2253
0.5125	-62.2253
0.5126	-62.2253
0.5127	-62.2253
0.5128	-62.2253
0.5129	-62.2253
0.513	-62.2559
0.5131	-62.2253
0.5132	-62.2864
0.5133	-62.2864
0.5134	-62.1948
0.5135	-62.2559
0.5136	-62.2559
0.5137	-62.1948
0.5138	-62.2559
0.5139	-62.2559
0.514	-62.2253
0.5141	-62.2864
0.5142	-62.2559
0.5143	-62.2864
0.5144	-62.3169
0.5145	-62.2864
0.5146	-62.3169
0.5147	-62.3169
0.5148	-62.2559
0.5149	-62.3169
0.515	-62.3474
0.5151	-62.3169
0.5152	-62.2864
0.5153	-62.3169
0.5154	-62.3474
0.5155	-62.439
0.5156	-62.4084
0.5157	-62.4084
0.5158	-62.4084
0.5159	-62.4084
0.516	-62.3779
0.5161	-62.4084
0.5162	-62.4084
0.5163	-62.439
0.5164	-62.4695
0.5165	-62.4695
0.5166	-62.4695
0.5167	-62.4695
0.5168	-62.4695
0.5169	-62.4695
0.517	-62.5
0.5171	-62.5
0.5172	-62.5
0.5173	-62.5305
0.5174	-62.5
0.5175	-62.5
0.5176	-62.4695
0.5177	-62.5
0.5178	-62.5305
0.5179	-62.5305
0.518	-62.5305
0.5181	-62.4695
0.5182	-62.5305
0.5183	-62.5
0.5184	-62.5305
0.5185	-62.5305
0.5186	-62.561
0.5187	-62.5305
0.5188	-62.561
0.5189	-62.561
0.519	-62.5916
0.5191	-62.5305
0.5192	-62.5305
0.5193	-62.5916
0.5194	-62.561
0.5195	-62.561
0.5196	-62.6221
0.5197	-62.561
0.5198	-62.5305
0.5199	-62.5305
0.52	-62.5
0.5201	-62.5
0.5202	-62.561
0.5203	-62.561
0.5204	-62.5305
0.5205	-62.5
0.5206	-62.5
0.5207	-62.439
0.5208	-62.561
0.5209	-62.439
0.521	-62.5305
0.5211	-62.561
0.5212	-62.561
0.5213	-62.561
0.5214	-62.6526
0.5215	-62.5916
0.5216	-62.5916
0.5217	-62.6221
0.5218	-62.6526
0.5219	-62.561
0.522	-62.6221
0.5221	-62.5916
0.5222	-62.6221
0.5223	-62.6526
0.5224	-62.5916
0.5225	-62.561
0.5226	-62.6221
0.5227	-62.6221
0.5228	-62.5916
0.5229	-62.561
0.523	-62.561
0.5231	-62.6221
0.5232	-62.5916
0.5233	-62.5
0.5234	-62.5916
0.5235	-62.5916
0.5236	-62.6221
0.5237	-62.5916
0.5238	-62.561
0.5239	-62.4695
0.524	-62.5305
0.5241	-62.5
0.5242	-62.5
0.5243	-62.5305
0.5244	-62.561
0.5245	-62.561
0.5246	-62.561
0.5247	-62.561
0.5248	-62.5305
0.5249	-62.561
0.525	-62.5
0.5251	-62.5305
0.5252	-62.5916
0.5253	-62.5
0.5254	-62.5305
0.5255	-62.6221
0.5256	-62.6526
0.5257	-62.561
0.5258	-62.561
0.5259	-62.5305
0.526	-62.5916
0.5261	-62.6221
0.5262	-62.5916
0.5263	-62.6526
0.5264	-62.6526
0.5265	-62.6221
0.5266	-62.6526
0.5267	-62.6221
0.5268	-62.6221
0.5269	-62.5916
0.527	-62.6221
0.5271	-62.561
0.5272	-62.561
0.5273	-62.5916
0.5274	-62.5916
0.5275	-62.6831
0.5276	-62.6526
0.5277	-62.5916
0.5278	-62.6526
0.5279	-62.6221
0.528	-62.6526
0.5281	-62.6831
0.5282	-62.6221
0.5283	-62.6221
0.5284	-62.6831
0.5285	-62.6221
0.5286	-62.7136
0.5287	-62.7136
0.5288	-62.6526
0.5289	-62.6831
0.529	-62.6831
0.5291	-62.6221
0.5292	-62.6526
0.5293	-62.7136
0.5294	-62.6831
0.5295	-62.7136
0.5296	-62.7747
0.5297	-62.7441
0.5298	-62.7441
0.5299	-62.7441
0.53	-62.7136
0.5301	-62.6831
0.5302	-62.7136
0.5303	-62.7441
0.5304	-62.7747
0.5305	-62.7441
0.5306	-62.7136
0.5307	-62.8052
0.5308	-62.7747
0.5309	-62.7747
0.531	-62.8052
0.5311	-62.7441
0.5312	-62.6831
0.5313	-62.7441
0.5314	-62.7441
0.5315	-62.7747
0.5316	-62.8052
0.5317	-62.7747
0.5318	-62.7441
0.5319	-62.7747
0.532	-62.7747
0.5321	-62.7136
0.5322	-62.8052
0.5323	-62.6831
0.5324	-62.7441
0.5325	-62.7136
0.5326	-62.6526
0.5327	-62.7747
0.5328	-62.7441
0.5329	-62.7441
0.533	-62.7747
0.5331	-62.6831
0.5332	-62.6831
0.5333	-62.7136
0.5334	-62.6831
0.5335	-62.6831
0.5336	-62.7136
0.5337	-62.6221
0.5338	-62.6221
0.5339	-62.5916
0.534	-62.5305
0.5341	-62.4695
0.5342	-62.5305
0.5343	-62.4084
0.5344	-62.3779
0.5345	-62.4084
0.5346	-62.3779
0.5347	-62.3169
0.5348	-62.3779
0.5349	-62.3474
0.535	-62.2864
0.5351	-62.3779
0.5352	-62.3474
0.5353	-62.2864
0.5354	-62.2559
0.5355	-62.2253
0.5356	-62.2864
0.5357	-62.3169
0.5358	-62.2559
0.5359	-62.2559
0.536	-62.3169
0.5361	-62.3169
0.5362	-62.3169
0.5363	-62.3169
0.5364	-62.2559
0.5365	-62.2864
0.5366	-62.2864
0.5367	-62.2864
0.5368	-62.3169
0.5369	-62.2864
0.537	-62.3169
0.5371	-62.3169
0.5372	-62.3169
0.5373	-62.3169
0.5374	-62.3474
0.5375	-62.2864
0.5376	-62.2559
0.5377	-62.2864
0.5378	-62.2253
0.5379	-62.2559
0.538	-62.2253
0.5381	-62.1948
0.5382	-62.1643
0.5383	-62.1948
0.5384	-62.1033
0.5385	-62.1338
0.5386	-62.1643
0.5387	-62.1338
0.5388	-62.1033
0.5389	-62.1643
0.539	-62.1643
0.5391	-62.1643
0.5392	-62.1643
0.5393	-62.1948
0.5394	-62.1643
0.5395	-62.2253
0.5396	-62.1643
0.5397	-62.2559
0.5398	-62.2253
0.5399	-62.2559
0.54	-62.2864
0.5401	-62.2864
0.5402	-62.2253
0.5403	-62.2864
0.5404	-62.2253
0.5405	-62.2864
0.5406	-62.2864
0.5407	-62.1948
0.5408	-62.2559
0.5409	-62.2864
0.541	-62.2253
0.5411	-62.2864
0.5412	-62.3474
0.5413	-62.3169
0.5414	-62.3169
0.5415	-62.3779
0.5416	-62.3779
0.5417	-62.3474
0.5418	-62.4084
0.5419	-62.3474
0.542	-62.3779
0.5421	-62.3779
0.5422	-62.3474
0.5423	-62.3779
0.5424	-62.439
0.5425	-62.439
0.5426	-62.4695
0.5427	-62.439
0.5428	-62.4084
0.5429	-62.4695
0.543	-62.5
0.5431	-62.439
0.5432	-62.5
0.5433	-62.4695
0.5434	-62.5
0.5435	-62.5
0.5436	-62.4695
0.5437	-62.4695
0.5438	-62.5
0.5439	-62.5
0.544	-62.561
0.5441	-62.5305
0.5442	-62.4695
0.5443	-62.4695
0.5444	-62.5
0.5445	-62.4695
0.5446	-62.5
0.5447	-62.5305
0.5448	-62.5305
0.5449	-62.5
0.545	-62.5305
0.5451	-62.4695
0.5452	-62.4695
0.5453	-62.5
0.5454	-62.439
0.5455	-62.439
0.5456	-62.439
0.5457	-62.4084
0.5458	-62.439
0.5459	-62.439
0.546	-62.4695
0.5461	-62.4695
0.5462	-62.4084
0.5463	-62.4084
0.5464	-62.4084
0.5465	-62.4084
0.5466	-62.3474
0.5467	-62.3779
0.5468	-62.3779
0.5469	-62.3474
0.547	-62.3169
0.5471	-62.2864
0.5472	-62.3169
0.5473	-62.2864
0.5474	-62.2864
0.5475	-62.2864
0.5476	-62.3169
0.5477	-62.2559
0.5478	-62.2559
0.5479	-62.2864
0.548	-62.2253
0.5481	-62.1643
0.5482	-62.2253
0.5483	-62.1948
0.5484	-62.2253
0.5485	-62.2559
0.5486	-62.2253
0.5487	-62.2253
0.5488	-62.2559
0.5489	-62.2559
0.549	-62.2864
0.5491	-62.2864
0.5492	-62.2559
0.5493	-62.2253
0.5494	-62.2559
0.5495	-62.2559
0.5496	-62.2864
0.5497	-62.2253
0.5498	-62.2253
0.5499	-62.1948
0.55	-62.2253
0.5501	-62.2253
0.5502	-62.2253
0.5503	-62.1643
0.5504	-62.1643
0.5505	-62.1948
0.5506	-62.1948
0.5507	-62.1338
0.5508	-62.2253
0.5509	-62.1643
0.551	-62.1338
0.5511	-62.2253
0.5512	-62.1948
0.5513	-62.1643
0.5514	-62.1948
0.5515	-62.1643
0.5516	-62.2253
0.5517	-62.2559
0.5518	-62.2253
0.5519	-62.1948
0.552	-62.2253
0.5521	-62.1338
0.5522	-62.1643
0.5523	-62.2253
0.5524	-62.2253
0.5525	-62.1948
0.5526	-62.2559
0.5527	-62.2253
0.5528	-62.2253
0.5529	-62.2864
0.553	-62.2559
0.5531	-62.2559
0.5532	-62.1948
0.5533	-62.1948
0.5534	-62.2253
0.5535	-62.2559
0.5536	-62.2559
0.5537	-62.2559
0.5538	-62.2253
0.5539	-62.2559
0.554	-62.2559
0.5541	-62.1948
0.5542	-62.1338
0.5543	-62.1338
0.5544	-62.1338
0.5545	-62.1033
0.5546	-62.1643
0.5547	-62.1643
0.5548	-62.1643
0.5549	-62.2253
0.555	-62.1948
0.5551	-62.1338
0.5552	-62.1643
0.5553	-62.1338
0.5554	-62.1948
0.5555	-62.1643
0.5556	-62.1033
0.5557	-62.1643
0.5558	-62.1643
0.5559	-62.1643
0.556	-62.1948
0.5561	-62.2253
0.5562	-62.1948
0.5563	-62.2253
0.5564	-62.2253
0.5565	-62.2253
0.5566	-62.2559
0.5567	-62.2559
0.5568	-62.2253
0.5569	-62.2559
0.557	-62.2559
0.5571	-62.2253
0.5572	-62.2253
0.5573	-62.2253
0.5574	-62.2253
0.5575	-62.2253
0.5576	-62.1643
0.5577	-62.1643
0.5578	-62.2253
0.5579	-62.2253
0.558	-62.2253
0.5581	-62.2559
0.5582	-62.2253
0.5583	-62.1948
0.5584	-62.2253
0.5585	-62.1948
0.5586	-62.1948
0.5587	-62.2864
0.5588	-62.2253
0.5589	-62.2559
0.559	-62.2253
0.5591	-62.2253
0.5592	-62.2864
0.5593	-62.3474
0.5594	-62.3779
0.5595	-62.3474
0.5596	-62.3474
0.5597	-62.3474
0.5598	-62.3169
0.5599	-62.3169
0.56	-62.2559
0.5601	-62.2559
0.5602	-62.2253
0.5603	-62.1948
0.5604	-62.1948
0.5605	-62.1643
0.5606	-62.1338
0.5607	-62.2253
0.5608	-62.1948
0.5609	-62.1948
0.561	-62.2253
0.5611	-62.1948
0.5612	-62.2559
0.5613	-62.2559
0.5614	-62.2559
0.5615	-62.2253
0.5616	-62.2559
0.5617	-62.2253
0.5618	-62.1338
0.5619	-62.2253
0.562	-62.1643
0.5621	-62.2253
0.5622	-62.3169
0.5623	-62.2864
0.5624	-62.2253
0.5625	-62.2559
0.5626	-62.2559
0.5627	-62.2559
0.5628	-62.2864
0.5629	-62.2864
0.563	-62.3169
0.5631	-62.3169
0.5632	-62.2559
0.5633	-62.3169
0.5634	-62.3169
0.5635	-62.2864
0.5636	-62.3169
0.5637	-62.2253
0.5638	-62.2559
0.5639	-62.1948
0.564	-62.1643
0.5641	-62.1338
0.5642	-62.1643
0.5643	-62.1338
0.5644	-62.1338
0.5645	-62.1948
0.5646	-62.1643
0.5647	-62.1643
0.5648	-62.1948
0.5649	-62.1643
0.565	-62.1948
0.5651	-62.2253
0.5652	-62.1338
0.5653	-62.1643
0.5654	-62.2559
0.5655	-62.1948
0.5656	-62.1338
0.5657	-62.2864
0.5658	-62.2559
0.5659	-62.1948
0.566	-62.2253
0.5661	-62.1643
0.5662	-62.1643
0.5663	-62.1948
0.5664	-62.1338
0.5665	-62.1338
0.5666	-62.1338
0.5667	-62.0728
0.5668	-62.0728
0.5669	-62.0422
0.567	-61.9812
0.5671	-61.9812
0.5672	-61.9812
0.5673	-61.9202
0.5674	-61.9507
0.5675	-61.9202
0.5676	-61.9202
0.5677	-61.9507
0.5678	-61.8896
0.5679	-61.8591
0.568	-61.9202
0.5681	-61.7981
0.5682	-61.7981
0.5683	-61.8591
0.5684	-61.8896
0.5685	-61.8896
0.5686	-61.9507
0.5687	-61.8896
0.5688	-61.8591
0.5689	-61.8896
0.569	-61.8286
0.5691	-61.8286
0.5692	-61.8896
0.5693	-61.7981
0.5694	-61.8591
0.5695	-61.8591
0.5696	-61.8286
0.5697	-61.8591
0.5698	-61.8591
0.5699	-61.8286
0.57	-61.8286
0.5701	-61.8591
0.5702	-61.8591
0.5703	-61.8591
0.5704	-61.8591
0.5705	-61.8286
0.5706	-61.8286
0.5707	-61.8286
0.5708	-61.8591
0.5709	-61.8591
0.571	-61.8896
0.5711	-61.8286
0.5712	-61.9202
0.5713	-61.8591
0.5714	-61.8591
0.5715	-61.8896
0.5716	-61.8896
0.5717	-61.8896
0.5718	-61.9202
0.5719	-61.8591
0.572	-61.8896
0.5721	-61.8896
0.5722	-61.9202
0.5723	-61.8896
0.5724	-61.9812
0.5725	-61.9812
0.5726	-62.0117
0.5727	-62.1033
0.5728	-62.0422
0.5729	-62.0117
0.573	-62.0728
0.5731	-62.0422
0.5732	-62.0422
0.5733	-62.0117
0.5734	-62.0422
0.5735	-62.0117
0.5736	-61.9812
0.5737	-62.0117
0.5738	-62.0117
0.5739	-62.0117
0.574	-62.0117
0.5741	-62.0728
0.5742	-62.0422
0.5743	-62.0422
0.5744	-62.0422
0.5745	-62.0422
0.5746	-62.0422
0.5747	-62.0728
0.5748	-62.0117
0.5749	-62.0422
0.575	-62.1033
0.5751	-62.1643
0.5752	-62.1338
0.5753	-62.1338
0.5754	-62.1338
0.5755	-62.1338
0.5756	-62.1948
0.5757	-62.0728
0.5758	-62.1033
0.5759	-62.1338
0.576	-62.1033
0.5761	-62.0728
0.5762	-62.1643
0.5763	-62.1338
0.5764	-62.1643
0.5765	-62.1338
0.5766	-62.1338
0.5767	-62.1033
0.5768	-62.1033
0.5769	-62.0728
0.577	-62.1338
0.5771	-62.1033
0.5772	-62.1338
0.5773	-62.1643
0.5774	-62.1338
0.5775	-62.1643
0.5776	-62.1338
0.5777	-62.1338
0.5778	-62.1338
0.5779	-62.1948
0.578	-62.1033
0.5781	-62.1338
0.5782	-62.1338
0.5783	-62.0728
0.5784	-62.0728
0.5785	-62.1948
0.5786	-62.1643
0.5787	-62.1643
0.5788	-62.2253
0.5789	-62.1338
0.579	-62.1338
0.5791	-62.1643
0.5792	-62.1643
0.5793	-62.1643
0.5794	-62.2253
0.5795	-62.1643
0.5796	-62.1643
0.5797	-62.1338
0.5798	-62.1338
0.5799	-62.1338
0.58	-62.1643
0.5801	-62.1033
0.5802	-62.1338
0.5803	-62.1643
0.5804	-62.1643
0.5805	-62.1643
0.5806	-62.1338
0.5807	-62.1033
0.5808	-62.1338
0.5809	-62.1643
0.581	-62.1643
0.5811	-62.1643
0.5812	-62.1338
0.5813	-62.1033
0.5814	-62.1643
0.5815	-62.1033
0.5816	-62.1948
0.5817	-62.1948
0.5818	-62.1643
0.5819	-62.1948
0.582	-62.2253
0.5821	-62.1643
0.5822	-62.1948
0.5823	-62.2253
0.5824	-62.1643
0.5825	-62.0728
0.5826	-62.1338
0.5827	-62.1033
0.5828	-62.1033
0.5829	-62.1033
0.583	-62.0422
0.5831	-62.0117
0.5832	-62.0728
0.5833	-62.1033
0.5834	-62.0728
0.5835	-62.1033
0.5836	-62.1338
0.5837	-62.1033
0.5838	-62.1033
0.5839	-62.0422
0.584	-62.0117
0.5841	-62.0117
0.5842	-62.0422
0.5843	-62.0728
0.5844	-62.1033
0.5845	-62.1033
0.5846	-62.1033
0.5847	-62.1643
0.5848	-62.1033
0.5849	-62.1643
0.585	-62.1033
0.5851	-62.0728
0.5852	-62.1338
0.5853	-62.0728
0.5854	-62.0728
0.5855	-62.1338
0.5856	-62.1033
0.5857	-62.1643
0.5858	-62.1643
0.5859	-62.0728
0.586	-62.0728
0.5861	-62.1643
0.5862	-62.1643
0.5863	-62.1338
0.5864	-62.1643
0.5865	-62.1338
0.5866	-62.1643
0.5867	-62.1643
0.5868	-62.1643
0.5869	-62.1338
0.587	-62.1033
0.5871	-62.1338
0.5872	-62.1033
0.5873	-62.1033
0.5874	-62.0422
0.5875	-62.0422
0.5876	-62.0728
0.5877	-62.0728
0.5878	-62.0728
0.5879	-62.0728
0.588	-62.1033
0.5881	-62.1643
0.5882	-62.1338
0.5883	-62.1643
0.5884	-62.2253
0.5885	-62.1948
0.5886	-62.1643
0.5887	-62.2253
0.5888	-62.1948
0.5889	-62.1643
0.589	-62.2253
0.5891	-62.1948
0.5892	-62.1643
0.5893	-62.1643
0.5894	-62.1033
0.5895	-62.0728
0.5896	-62.0422
0.5897	-62.0422
0.5898	-62.0422
0.5899	-62.1033
0.59	-62.1338
0.5901	-62.1033
0.5902	-62.1033
0.5903	-62.1033
0.5904	-62.1338
0.5905	-62.1033
0.5906	-62.0422
0.5907	-62.1033
0.5908	-62.1338
0.5909	-62.0728
0.591	-62.1033
0.5911	-62.0728
0.5912	-62.0422
0.5913	-62.0117
0.5914	-62.0422
0.5915	-61.9812
0.5916	-61.9202
0.5917	-61.9202
0.5918	-61.8896
0.5919	-61.9202
0.592	-61.8591
0.5921	-61.7981
0.5922	-61.8286
0.5923	-61.7981
0.5924	-61.7676
0.5925	-61.8286
0.5926	-61.7981
0.5927	-61.8591
0.5928	-61.8896
0.5929	-61.8286
0.593	-61.7981
0.5931	-61.8286
0.5932	-61.8286
0.5933	-61.7981
0.5934	-61.8896
0.5935	-61.8896
0.5936	-61.8896
0.5937	-61.8896
0.5938	-61.8896
0.5939	-61.9202
0.594	-61.9507
0.5941	-61.8591
0.5942	-61.8286
0.5943	-61.8286
0.5944	-61.8286
0.5945	-61.8591
0.5946	-61.8896
0.5947	-61.8591
0.5948	-61.9507
0.5949	-61.8896
0.595	-61.8896
0.5951	-61.9812
0.5952	-61.9507
0.5953	-61.8591
0.5954	-61.9202
0.5955	-61.8896
0.5956	-61.8591
0.5957	-61.9202
0.5958	-61.8896
0.5959	-61.8896
0.596	-61.9507
0.5961	-61.9202
0.5962	-61.8896
0.5963	-61.9507
0.5964	-61.8896
0.5965	-61.8896
0.5966	-61.9202
0.5967	-61.8896
0.5968	-61.8286
0.5969	-61.8286
0.597	-61.7981
0.5971	-61.8286
0.5972	-61.7981
0.5973	-61.8286
0.5974	-61.7676
0.5975	-61.7676
0.5976	-61.7676
0.5977	-61.7981
0.5978	-61.7676
0.5979	-61.676
0.598	-61.676
0.5981	-61.7065
0.5982	-61.676
0.5983	-61.7065
0.5984	-61.676
0.5985	-61.7065
0.5986	-61.7676
0.5987	-61.7065
0.5988	-61.7676
0.5989	-61.7981
0.599	-61.7676
0.5991	-61.7371
0.5992	-61.8286
0.5993	-61.8286
0.5994	-61.8286
0.5995	-61.8286
0.5996	-61.7981
0.5997	-61.7981
0.5998	-61.8286
0.5999	-61.8286
0.6	-61.7981
0.6001	-61.8286
0.6002	-61.8591
0.6003	-61.8286
0.6004	-61.9202
0.6005	-61.9202
0.6006	-61.9507
0.6007	-61.9812
0.6008	-62.0117
0.6009	-61.9812
0.601	-61.9507
0.6011	-61.9202
0.6012	-61.8896
0.6013	-61.9812
0.6014	-61.9507
0.6015	-62.0117
0.6016	-61.9812
0.6017	-61.9507
0.6018	-61.9507
0.6019	-61.9202
0.602	-61.9507
0.6021	-62.0422
0.6022	-62.0117
0.6023	-61.9812
0.6024	-62.0422
0.6025	-62.0117
0.6026	-61.9812
0.6027	-62.0728
0.6028	-62.0422
0.6029	-62.0728
0.603	-62.0728
0.6031	-62.0422
0.6032	-62.0422
0.6033	-62.0117
0.6034	-62.0422
0.6035	-61.9507
0.6036	-61.9507
0.6037	-61.9202
0.6038	-61.8591
0.6039	-61.9812
0.604	-61.9507
0.6041	-61.9507
0.6042	-61.9507
0.6043	-61.9202
0.6044	-61.9812
0.6045	-62.0117
0.6046	-61.9812
0.6047	-61.9812
0.6048	-61.9812
0.6049	-62.0117
0.605	-62.0117
0.6051	-61.9202
0.6052	-61.9507
0.6053	-61.9812
0.6054	-62.0117
0.6055	-62.0422
0.6056	-62.0728
0.6057	-62.0728
0.6058	-62.0728
0.6059	-62.1948
0.606	-62.1338
0.6061	-62.0422
0.6062	-62.1033
0.6063	-62.0728
0.6064	-62.0728
0.6065	-62.0728
0.6066	-62.0728
0.6067	-62.0422
0.6068	-62.0728
0.6069	-62.0728
0.607	-62.0117
0.6071	-62.0117
0.6072	-61.9812
0.6073	-62.0728
0.6074	-62.0728
0.6075	-62.0422
0.6076	-62.0117
0.6077	-62.0422
0.6078	-62.1033
0.6079	-62.1338
0.608	-62.1643
0.6081	-62.0728
0.6082	-62.1643
0.6083	-62.1338
0.6084	-62.1643
0.6085	-62.1643
0.6086	-62.1033
0.6087	-62.1338
0.6088	-62.1643
0.6089	-62.1338
0.609	-62.1338
0.6091	-62.1948
0.6092	-62.1033
0.6093	-62.1033
0.6094	-62.1033
0.6095	-62.1033
0.6096	-62.1033
0.6097	-62.1643
0.6098	-62.1033
0.6099	-62.1643
0.61	-62.1948
0.6101	-62.1643
0.6102	-62.1338
0.6103	-62.1033
0.6104	-62.0728
0.6105	-62.1033
0.6106	-62.1338
0.6107	-62.1033
0.6108	-62.1338
0.6109	-62.1338
0.611	-62.1338
0.6111	-62.1643
0.6112	-62.1643
0.6113	-62.1643
0.6114	-62.1338
0.6115	-62.1033
0.6116	-62.0728
0.6117	-62.0422
0.6118	-62.0117
0.6119	-61.9812
0.612	-62.0117
0.6121	-62.0117
0.6122	-61.9507
0.6123	-61.9812
0.6124	-61.8896
0.6125	-61.9507
0.6126	-62.0422
0.6127	-62.0117
0.6128	-61.9812
0.6129	-62.0422
0.613	-62.0422
0.6131	-62.1033
0.6132	-62.1643
0.6133	-62.1033
0.6134	-62.1033
0.6135	-62.0728
0.6136	-62.1033
0.6137	-62.0728
0.6138	-62.1033
0.6139	-62.0728
0.614	-62.1338
0.6141	-62.1948
0.6142	-62.1338
0.6143	-62.1033
0.6144	-62.1643
0.6145	-62.1643
0.6146	-62.1643
0.6147	-62.1948
0.6148	-62.1643
0.6149	-62.1643
0.615	-62.1643
0.6151	-62.1338
0.6152	-62.1643
0.6153	-62.1033
0.6154	-62.1643
0.6155	-62.1948
0.6156	-62.1948
0.6157	-63.0188
0.6158	-63.324
0.6159	-63.5681
0.616	-63.8123
0.6161	-64.1174
0.6162	-64.27
0.6163	-64.4836
0.6164	-64.6973
0.6165	-64.8193
0.6166	-64.9719
0.6167	-65.155
0.6168	-65.3076
0.6169	-65.4297
0.617	-65.6128
0.6171	-65.7043
0.6172	-65.7959
0.6173	-65.9485
0.6174	-66.0706
0.6175	-66.1926
0.6176	-66.3452
0.6177	-66.3757
0.6178	-66.4978
0.6179	-66.6504
0.618	-66.6809
0.6181	-66.7725
0.6182	-66.864
0.6183	-66.9861
0.6184	-67.1082
0.6185	-67.2302
0.6186	-67.2913
0.6187	-67.3218
0.6188	-67.3828
0.6189	-67.4133
0.619	-67.5659
0.6191	-67.688
0.6192	-67.749
0.6193	-67.9016
0.6194	-67.9321
0.6195	-67.9626
0.6196	-68.0847
0.6197	-68.1152
0.6198	-68.2373
0.6199	-68.3289
0.62	-68.3899
0.6201	-68.3899
0.6202	-68.512
0.6203	-68.512
0.6204	-68.573
0.6205	-68.6646
0.6206	-68.6951
0.6207	-68.7866
0.6208	-68.9392
0.6209	-68.9087
0.621	-68.9697
0.6211	-69.0613
0.6212	-69.0918
0.6213	-69.2139
0.6214	-69.2749
0.6215	-69.3054
0.6216	-69.3665
0.6217	-69.458
0.6218	-69.4885
0.6219	-69.5496
0.622	-69.6106
0.6221	-69.6106
0.6222	-69.7327
0.6223	-69.7632
0.6224	-69.7632
0.6225	-69.8547
0.6226	-69.7937
0.6227	-69.8853
0.6228	-70.0073
0.6229	-69.9768
0.623	-69.9768
0.6231	-70.0684
0.6232	-70.0684
0.6233	-70.0989
0.6234	-70.2209
0.6235	-70.2209
0.6236	-70.2515
0.6237	-70.3125
0.6238	-70.343
0.6239	-70.343
0.624	-70.4041
0.6241	-70.4956
0.6242	-70.4651
0.6243	-70.4956
0.6244	-70.4956
0.6245	-70.5566
0.6246	-70.6482
0.6247	-70.6787
0.6248	-70.7092
0.6249	-70.7397
0.625	-70.8008
0.6251	-70.8923
0.6252	-70.8923
0.6253	-70.8923
0.6254	-70.9534
0.6255	-70.9839
0.6256	-71.0449
0.6257	-71.0449
0.6258	-71.0754
0.6259	-71.106
0.626	-71.167
0.6261	-71.167
0.6262	-71.167
0.6263	-71.228
0.6264	-71.228
0.6265	-71.228
0.6266	-71.3196
0.6267	-71.3196
0.6268	-71.4111
0.6269	-71.4417
0.627	-71.4417
0.6271	-71.4722
0.6272	-71.4417
0.6273	-71.4417
0.6274	-71.5332
0.6275	-71.5637
0.6276	-71.5637
0.6277	-71.5942
0.6278	-71.6553
0.6279	-71.6858
0.628	-71.7163
0.6281	-71.7163
0.6282	-71.7163
0.6283	-71.8079
0.6284	-71.8079
0.6285	-71.7773
0.6286	-71.7773
0.6287	-71.8384
0.6288	-71.8384
0.6289	-71.8689
0.629	-71.8994
0.6291	-71.9299
0.6292	-71.991
0.6293	-71.991
0.6294	-72.052
0.6295	-72.0825
0.6296	-72.0215
0.6297	-72.052
0.6298	-72.1436
0.6299	-72.052
0.63	-72.1436
0.6301	-72.1741
0.6302	-72.2046
0.6303	-72.1741
0.6304	-72.2351
0.6305	-72.2351
0.6306	-72.1741
0.6307	-72.2351
0.6308	-72.1741
0.6309	-72.2351
0.631	-72.2961
0.6311	-72.2961
0.6312	-72.3267
0.6313	-72.3267
0.6314	-72.3572
0.6315	-72.2961
0.6316	-72.3572
0.6317	-72.4182
0.6318	-72.4182
0.6319	-72.4487
0.632	-72.4792
0.6321	-72.5098
0.6322	-72.4792
0.6323	-72.4792
0.6324	-72.5708
0.6325	-72.5708
0.6326	-72.5403
0.6327	-72.6013
0.6328	-72.6013
0.6329	-72.6013
0.633	-72.6624
0.6331	-72.6013
0.6332	-72.6013
0.6333	-72.6929
0.6334	-72.6318
0.6335	-72.6318
0.6336	-72.6929
0.6337	-72.6624
0.6338	-72.7234
0.6339	-72.7844
0.634	-72.7844
0.6341	-72.7234
0.6342	-72.8455
0.6343	-72.8149
0.6344	-72.8455
0.6345	-72.876
0.6346	-72.876
0.6347	-72.9065
0.6348	-72.9065
0.6349	-72.937
0.635	-72.9675
0.6351	-72.937
0.6352	-72.9065
0.6353	-72.937
0.6354	-72.9065
0.6355	-72.937
0.6356	-73.0286
0.6357	-72.998
0.6358	-72.9675
0.6359	-73.0286
0.636	-73.0286
0.6361	-73.0591
0.6362	-73.1201
0.6363	-72.998
0.6364	-73.0286
0.6365	-73.0286
0.6366	-73.0286
0.6367	-73.0591
0.6368	-73.0896
0.6369	-73.0896
0.637	-73.0896
0.6371	-73.0896
0.6372	-73.0896
0.6373	-73.1201
0.6374	-73.1201
0.6375	-73.1201
0.6376	-73.0896
0.6377	-73.0896
0.6378	-73.0896
0.6379	-73.0896
0.638	-73.1506
0.6381	-73.1506
0.6382	-73.0896
0.6383	-73.1812
0.6384	-73.1506
0.6385	-73.1506
0.6386	-73.2117
0.6387	-73.1506
0.6388	-73.1812
0.6389	-73.1812
0.639	-73.1812
0.6391	-73.2422
0.6392	-73.2117
0.6393	-73.2117
0.6394	-73.2422
0.6395	-73.1812
0.6396	-73.1506
0.6397	-73.2727
0.6398	-73.2117
0.6399	-73.2117
0.64	-73.3032
0.6401	-73.2117
0.6402	-73.2422
0.6403	-73.3337
0.6404	-73.3032
0.6405	-73.2727
0.6406	-73.3032
0.6407	-73.2727
0.6408	-73.2727
0.6409	-73.3337
0.641	-73.3337
0.6411	-73.3337
0.6412	-73.3643
0.6413	-73.3337
0.6414	-73.3948
0.6415	-73.4253
0.6416	-73.3948
0.6417	-73.3948
0.6418	-73.4253
0.6419	-73.4558
0.642	-73.5168
0.6421	-73.4558
0.6422	-73.3948
0.6423	-73.4253
0.6424	-73.4558
0.6425	-73.4253
0.6426	-73.4558
0.6427	-73.4558
0.6428	-73.4558
0.6429	-73.5168
0.643	-73.5168
0.6431	-73.5168
0.6432	-73.5474
0.6433	-73.5168
0.6434	-73.5168
0.6435	-73.6389
0.6436	-73.5474
0.6437	-73.5779
0.6438	-73.6084
0.6439	-73.5779
0.644	-73.5779
0.6441	-73.6389
0.6442	-73.5779
0.6443	-73.6389
0.6444	-73.6694
0.6445	-73.6389
0.6446	-73.6084
0.6447	-73.6694
0.6448	-73.6694
0.6449	-73.7
0.645	-73.6694
0.6451	-73.6694
0.6452	-73.6694
0.6453	-73.7
0.6454	-73.6694
0.6455	-73.6389
0.6456	-73.7
0.6457	-73.7
0.6458	-73.7915
0.6459	-73.7915
0.646	-73.7915
0.6461	-73.761
0.6462	-73.7915
0.6463	-73.761
0.6464	-73.7915
0.6465	-73.761
0.6466	-73.761
0.6467	-73.7915
0.6468	-73.7915
0.6469	-73.761
0.647	-73.8525
0.6471	-73.761
0.6472	-73.7305
0.6473	-73.7915
0.6474	-73.7915
0.6475	-73.7915
0.6476	-73.822
0.6477	-73.822
0.6478	-73.822
0.6479	-73.822
0.648	-73.7915
0.6481	-73.822
0.6482	-73.8525
0.6483	-73.822
0.6484	-73.822
0.6485	-73.8525
0.6486	-73.822
0.6487	-73.8525
0.6488	-73.9136
0.6489	-73.8525
0.649	-73.8525
0.6491	-73.8831
0.6492	-73.8525
0.6493	-73.8831
0.6494	-73.822
0.6495	-73.822
0.6496	-73.8831
0.6497	-73.822
0.6498	-73.7915
0.6499	-73.822
0.65	-73.7915
0.6501	-73.822
0.6502	-73.8831
0.6503	-73.8525
0.6504	-73.8525
0.6505	-73.8831
0.6506	-73.8525
0.6507	-73.822
0.6508	-73.8831
0.6509	-73.822
0.651	-73.822
0.6511	-73.7915
0.6512	-73.822
0.6513	-73.7915
0.6514	-73.822
0.6515	-73.822
0.6516	-73.8525
0.6517	-73.822
0.6518	-73.7915
0.6519	-73.761
0.652	-73.7915
0.6521	-73.7915
0.6522	-73.822
0.6523	-73.822
0.6524	-73.7915
0.6525	-73.822
0.6526	-73.7915
0.6527	-73.7915
0.6528	-73.8525
0.6529	-73.822
0.653	-73.8525
0.6531	-73.8831
0.6532	-73.8525
0.6533	-73.8831
0.6534	-73.9441
0.6535	-73.8831
0.6536	-73.9136
0.6537	-73.9136
0.6538	-73.9136
0.6539	-73.8831
0.654	-73.9441
0.6541	-73.8525
0.6542	-73.8831
0.6543	-73.8831
0.6544	-73.8525
0.6545	-73.8525
0.6546	-73.9136
0.6547	-73.8525
0.6548	-73.8831
0.6549	-73.9441
0.655	-73.9136
0.6551	-73.9136
0.6552	-73.9746
0.6553	-73.8525
0.6554	-73.9441
0.6555	-73.8831
0.6556	-73.8831
0.6557	-73.9441
0.6558	-73.9136
0.6559	-73.9136
0.656	-73.9441
0.6561	-73.8831
0.6562	-73.8831
0.6563	-73.9441
0.6564	-73.9441
0.6565	-73.9746
0.6566	-74.0356
0.6567	-73.9746
0.6568	-73.9136
0.6569	-74.0051
0.657	-73.9136
0.6571	-73.9136
0.6572	-74.0051
0.6573	-74.0051
0.6574	-73.9441
0.6575	-74.0051
0.6576	-73.9136
0.6577	-73.9441
0.6578	-74.0051
0.6579	-73.9746
0.658	-74.0051
0.6581	-74.0051
0.6582	-74.0051
0.6583	-74.0356
0.6584	-74.0662
0.6585	-74.0051
0.6586	-74.0356
0.6587	-74.0662
0.6588	-74.0662
0.6589	-74.0662
0.659	-74.0356
0.6591	-74.0356
0.6592	-74.0967
0.6593	-74.0967
0.6594	-74.0967
0.6595	-74.1272
0.6596	-74.0967
0.6597	-74.0967
0.6598	-74.1577
0.6599	-74.1577
0.66	-74.1272
0.6601	-74.1882
0.6602	-74.1577
0.6603	-74.1882
0.6604	-74.1882
0.6605	-74.1577
0.6606	-74.1272
0.6607	-74.2188
0.6608	-74.1577
0.6609	-74.1577
0.661	-74.1577
0.6611	-74.1272
0.6612	-74.1272
0.6613	-74.1272
0.6614	-74.1272
0.6615	-74.1272
0.6616	-74.1882
0.6617	-74.1882
0.6618	-74.1882
0.6619	-74.1882
0.662	-74.1882
0.6621	-74.2798
0.6622	-74.2188
0.6623	-74.1882
0.6624	-74.2798
0.6625	-74.2493
0.6626	-74.2493
0.6627	-74.2798
0.6628	-74.2493
0.6629	-74.2188
0.663	-74.2493
0.6631	-74.2188
0.6632	-74.2188
0.6633	-74.2798
0.6634	-74.2493
0.6635	-74.2493
0.6636	-74.2798
0.6637	-74.2493
0.6638	-74.2798
0.6639	-74.3103
0.664	-74.2798
0.6641	-74.1882
0.6642	-74.1882
0.6643	-74.2493
0.6644	-74.1882
0.6645	-74.2493
0.6646	-74.1882
0.6647	-74.1577
0.6648	-74.2493
0.6649	-74.1882
0.665	-74.2188
0.6651	-74.2493
0.6652	-74.1882
0.6653	-74.2493
0.6654	-74.2798
0.6655	-74.2798
0.6656	-74.2188
0.6657	-74.2493
0.6658	-74.2188
0.6659	-74.2798
0.666	-74.3103
0.6661	-74.2493
0.6662	-74.2798
0.6663	-74.2798
0.6664	-74.2188
0.6665	-74.2188
0.6666	-74.2188
0.6667	-74.1882
0.6668	-74.2493
0.6669	-74.2798
0.667	-74.2798
0.6671	-74.3103
0.6672	-74.2798
0.6673	-74.3408
0.6674	-74.3408
0.6675	-74.2798
0.6676	-74.2798
0.6677	-74.3103
0.6678	-74.2188
0.6679	-74.2493
0.668	-74.3103
0.6681	-74.2798
0.6682	-74.2493
0.6683	-74.2493
0.6684	-74.2188
0.6685	-74.1882
0.6686	-74.2798
0.6687	-74.2188
0.6688	-74.2798
0.6689	-74.2493
0.669	-74.2188
0.6691	-74.2798
0.6692	-74.2798
0.6693	-74.2798
0.6694	-74.3103
0.6695	-74.2798
0.6696	-74.2493
0.6697	-74.3103
0.6698	-74.2798
0.6699	-74.2798
0.67	-74.2798
0.6701	-74.2188
0.6702	-74.1882
0.6703	-74.2188
0.6704	-74.1272
0.6705	-74.1272
0.6706	-74.1882
0.6707	-74.1272
0.6708	-74.1882
0.6709	-74.1577
0.671	-74.1577
0.6711	-74.1882
0.6712	-74.1882
0.6713	-74.1882
0.6714	-74.1882
0.6715	-74.2188
0.6716	-74.2493
0.6717	-74.1882
0.6718	-74.2798
0.6719	-74.2493
0.672	-74.2188
0.6721	-74.2188
0.6722	-74.1882
0.6723	-74.2798
0.6724	-74.2493
0.6725	-74.2188
0.6726	-74.2798
0.6727	-74.2798
0.6728	-74.2798
0.6729	-74.3103
0.673	-74.2493
0.6731	-74.2493
0.6732	-74.3103
0.6733	-74.2798
0.6734	-74.2493
0.6735	-74.2798
0.6736	-74.1882
0.6737	-74.2188
0.6738	-74.2493
0.6739	-74.2493
0.674	-74.2493
0.6741	-74.2798
0.6742	-74.3103
0.6743	-74.2798
0.6744	-74.3713
0.6745	-74.2798
0.6746	-74.3408
0.6747	-74.3408
0.6748	-74.3408
0.6749	-74.3103
0.675	-74.3408
0.6751	-74.3713
0.6752	-74.3103
0.6753	-74.3103
0.6754	-74.3103
0.6755	-74.3408
0.6756	-74.4019
0.6757	-74.3408
0.6758	-74.3103
0.6759	-74.3408
0.676	-74.3408
0.6761	-74.3408
0.6762	-74.3713
0.6763	-74.3103
0.6764	-74.3408
0.6765	-74.3408
0.6766	-74.3408
0.6767	-74.3713
0.6768	-74.3103
0.6769	-74.3713
0.677	-74.4629
0.6771	-74.3713
0.6772	-74.3713
0.6773	-74.4019
0.6774	-74.3103
0.6775	-74.2798
0.6776	-74.3408
0.6777	-74.2493
0.6778	-74.2188
0.6779	-74.2188
0.678	-74.2493
0.6781	-74.2493
0.6782	-74.2798
0.6783	-74.2188
0.6784	-74.2493
0.6785	-74.3103
0.6786	-74.2493
0.6787	-74.3103
0.6788	-74.3103
0.6789	-74.3103
0.679	-74.3103
0.6791	-74.3408
0.6792	-74.3713
0.6793	-74.3103
0.6794	-74.3408
0.6795	-74.3103
0.6796	-74.3408
0.6797	-74.3408
0.6798	-74.3103
0.6799	-74.3713
0.68	-74.3408
0.6801	-74.3103
0.6802	-74.3408
0.6803	-74.2798
0.6804	-74.2188
0.6805	-74.2493
0.6806	-74.2188
0.6807	-74.2188
0.6808	-74.2798
0.6809	-74.1882
0.681	-74.2188
0.6811	-74.2798
0.6812	-74.2493
0.6813	-74.2188
0.6814	-74.3103
0.6815	-74.2493
0.6816	-74.2493
0.6817	-74.2493
0.6818	-74.2493
0.6819	-74.3103
0.682	-74.2798
0.6821	-74.2798
0.6822	-74.2798
0.6823	-74.3408
0.6824	-74.2798
0.6825	-74.2798
0.6826	-74.2798
0.6827	-74.3103
0.6828	-74.3103
0.6829	-74.2798
0.683	-74.2798
0.6831	-74.2798
0.6832	-74.2493
0.6833	-74.2798
0.6834	-74.3103
0.6835	-74.2798
0.6836	-74.2493
0.6837	-74.2493
0.6838	-74.2188
0.6839	-74.2188
0.684	-74.2798
0.6841	-74.2798
0.6842	-74.2798
0.6843	-74.3103
0.6844	-74.3103
0.6845	-74.2798
0.6846	-74.3103
0.6847	-74.2798
0.6848	-74.2493
0.6849	-74.3103
0.685	-74.2798
0.6851	-74.2493
0.6852	-74.2798
0.6853	-74.2493
0.6854	-74.2798
0.6855	-74.2798
0.6856	-74.2493
0.6857	-74.3103
0.6858	-74.2798
0.6859	-74.2798
0.686	-74.3103
0.6861	-74.2798
0.6862	-74.3103
0.6863	-74.3103
0.6864	-74.3408
0.6865	-74.3103
0.6866	-74.3103
0.6867	-74.3408
0.6868	-74.2493
0.6869	-74.2798
0.687	-74.2798
0.6871	-74.2798
0.6872	-74.3408
0.6873	-74.2798
0.6874	-74.2798
0.6875	-74.3408
0.6876	-74.2798
0.6877	-74.2798
0.6878	-74.3103
0.6879	-74.2493
0.688	-74.2493
0.6881	-74.3103
0.6882	-74.2493
0.6883	-74.2798
0.6884	-74.3103
0.6885	-74.3103
0.6886	-74.2798
0.6887	-74.2798
0.6888	-74.3103
0.6889	-74.3103
0.689	-74.4019
0.6891	-74.4019
0.6892	-74.3713
0.6893	-74.3713
0.6894	-74.3408
0.6895	-74.3713
0.6896	-74.3713
0.6897	-74.3408
0.6898	-74.3713
0.6899	-74.3408
0.69	-74.3103
0.6901	-74.3713
0.6902	-74.3103
0.6903	-74.3103
0.6904	-74.3713
0.6905	-74.2493
0.6906	-74.2798
0.6907	-74.3103
0.6908	-74.3103
0.6909	-74.3103
0.691	-74.3408
0.6911	-74.3408
0.6912	-74.3713
0.6913	-74.4019
0.6914	-74.3408
0.6915	-74.3103
0.6916	-74.3713
0.6917	-74.4019
0.6918	-74.3713
0.6919	-74.4019
0.692	-74.4324
0.6921	-74.3713
0.6922	-74.4019
0.6923	-74.3713
0.6924	-74.3713
0.6925	-74.4019
0.6926	-74.3713
0.6927	-74.3713
0.6928	-74.3713
0.6929	-74.3103
0.693	-74.3713
0.6931	-74.3713
0.6932	-74.3103
0.6933	-74.3713
0.6934	-74.3713
0.6935	-74.3713
0.6936	-74.4019
0.6937	-74.3713
0.6938	-74.4019
0.6939	-74.4629
0.694	-74.4019
0.6941	-74.4019
0.6942	-74.4019
0.6943	-74.4324
0.6944	-74.4019
0.6945	-74.4019
0.6946	-74.3408
0.6947	-74.3713
0.6948	-74.4019
0.6949	-74.4019
0.695	-74.4019
0.6951	-74.4019
0.6952	-74.3713
0.6953	-74.4324
0.6954	-74.4629
0.6955	-74.4324
0.6956	-74.4019
0.6957	-74.4019
0.6958	-74.4629
0.6959	-74.4324
0.696	-74.4629
0.6961	-74.3408
0.6962	-74.4324
0.6963	-74.4019
0.6964	-74.4019
0.6965	-74.4019
0.6966	-74.4629
0.6967	-74.4629
0.6968	-74.4324
0.6969	-74.4324
0.697	-74.4019
0.6971	-74.4324
0.6972	-74.4019
0.6973	-74.4019
0.6974	-74.4324
0.6975	-74.3408
0.6976	-74.4324
0.6977	-74.4019
0.6978	-74.3103
0.6979	-74.3408
0.698	-74.3713
0.6981	-74.3408
0.6982	-74.3713
0.6983	-74.4629
0.6984	-74.3713
0.6985	-74.3713
0.6986	-74.4629
0.6987	-74.3713
0.6988	-74.4324
0.6989	-74.4019
0.699	-74.4019
0.6991	-74.4324
0.6992	-74.4019
0.6993	-74.3713
0.6994	-74.4019
0.6995	-74.3408
0.6996	-74.3713
0.6997	-74.3713
0.6998	-74.3408
0.6999	-74.4019
0.7	-74.3713
0.7001	-74.3713
0.7002	-74.3408
0.7003	-74.3713
0.7004	-74.3713
0.7005	-74.3408
0.7006	-74.3713
0.7007	-74.2798
0.7008	-74.3103
0.7009	-74.3713
0.701	-74.3103
0.7011	-74.3103
0.7012	-74.3408
0.7013	-74.2493
0.7014	-74.3103
0.7015	-74.3408
0.7016	-74.3103
0.7017	-74.3103
0.7018	-74.3103
0.7019	-74.3103
0.702	-74.2493
0.7021	-74.3103
0.7022	-74.2798
0.7023	-74.2798
0.7024	-74.2798
0.7025	-74.2798
0.7026	-74.3103
0.7027	-74.3103
0.7028	-74.3408
0.7029	-74.3103
0.703	-74.3103
0.7031	-74.3408
0.7032	-74.3408
0.7033	-74.3103
0.7034	-74.2493
0.7035	-74.3103
0.7036	-74.2798
0.7037	-74.2493
0.7038	-74.2798
0.7039	-74.2798
0.704	-74.2798
0.7041	-74.2798
0.7042	-74.2493
0.7043	-74.3103
0.7044	-74.3408
0.7045	-74.2188
0.7046	-74.2798
0.7047	-74.2798
0.7048	-74.3103
0.7049	-74.3103
0.705	-74.3408
0.7051	-74.3103
0.7052	-74.2798
0.7053	-74.3408
0.7054	-74.3103
0.7055	-74.3408
0.7056	-74.3408
0.7057	-74.3103
0.7058	-74.3408
0.7059	-74.3713
0.706	-74.3713
0.7061	-74.4324
0.7062	-74.3408
0.7063	-74.4019
0.7064	-74.4324
0.7065	-74.3713
0.7066	-74.3408
0.7067	-74.4019
0.7068	-74.3713
0.7069	-74.3408
0.707	-74.3713
0.7071	-74.3713
0.7072	-74.3408
0.7073	-74.3408
0.7074	-74.3713
0.7075	-74.3408
0.7076	-74.3713
0.7077	-74.3408
0.7078	-74.3103
0.7079	-74.4019
0.708	-74.3408
0.7081	-74.3408
0.7082	-74.3408
0.7083	-74.3408
0.7084	-74.3408
0.7085	-74.3713
0.7086	-74.3408
0.7087	-74.3408
0.7088	-74.3713
0.7089	-74.4019
0.709	-74.4019
0.7091	-74.4019
0.7092	-74.3713
0.7093	-74.4019
0.7094	-74.4019
0.7095	-74.4019
0.7096	-74.4019
0.7097	-74.4019
0.7098	-74.3713
0.7099	-74.4019
0.71	-74.4019
0.7101	-74.3713
0.7102	-74.4019
0.7103	-74.4019
0.7104	-74.3713
0.7105	-74.4019
0.7106	-74.3713
0.7107	-74.3713
0.7108	-74.3713
0.7109	-74.2798
0.711	-74.3103
0.7111	-74.3713
0.7112	-74.3408
0.7113	-74.3408
0.7114	-74.3408
0.7115	-74.3408
0.7116	-74.3713
0.7117	-74.3408
0.7118	-74.3408
0.7119	-74.2798
0.712	-74.3408
0.7121	-74.3408
0.7122	-74.3713
0.7123	-74.3408
0.7124	-74.3408
0.7125	-74.3713
0.7126	-74.4019
0.7127	-74.4019
0.7128	-74.3713
0.7129	-74.3408
0.713	-74.4019
0.7131	-74.4324
0.7132	-74.3713
0.7133	-74.4324
0.7134	-74.4629
0.7135	-74.3713
0.7136	-74.4019
0.7137	-74.4324
0.7138	-74.4019
0.7139	-74.3408
0.714	-74.3408
0.7141	-74.3103
0.7142	-74.2798
0.7143	-74.3408
0.7144	-74.3408
0.7145	-74.3713
0.7146	-74.3713
0.7147	-74.3408
0.7148	-74.3408
0.7149	-74.3408
0.715	-74.3103
0.7151	-74.3408
0.7152	-74.3713
0.7153	-74.3713
0.7154	-74.3408
0.7155	-74.3713
0.7156	-74.3408
0.7157	-74.2798
0.7158	-74.3103
0.7159	-74.3103
0.716	-74.3713
0.7161	-74.3103
0.7162	-74.2798
0.7163	-74.3408
0.7164	-74.3103
0.7165	-74.2493
0.7166	-74.2798
0.7167	-74.2493
0.7168	-74.3103
0.7169	-74.3408
0.717	-74.3103
0.7171	-74.2493
0.7172	-74.2493
0.7173	-74.2493
0.7174	-74.2493
0.7175	-74.2798
0.7176	-74.2493
0.7177	-74.2188
0.7178	-74.2188
0.7179	-74.2188
0.718	-74.1577
0.7181	-74.2188
0.7182	-74.1577
0.7183	-74.1882
0.7184	-74.2188
0.7185	-74.1882
0.7186	-74.2188
0.7187	-74.1882
0.7188	-74.1577
0.7189	-74.1882
0.719	-74.1882
0.7191	-74.1577
0.7192	-74.1882
0.7193	-74.1882
0.7194	-74.1882
0.7195	-74.1882
0.7196	-74.1882
0.7197	-74.1882
0.7198	-74.2493
0.7199	-74.2188
0.72	-74.2493
0.7201	-74.2493
0.7202	-74.1882
0.7203	-74.1577
0.7204	-74.2188
0.7205	-74.1882
0.7206	-74.1577
0.7207	-74.2188
0.7208	-74.1577
0.7209	-74.0967
0.721	-74.1882
0.7211	-74.1882
0.7212	-74.1577
0.7213	-74.1577
0.7214	-74.1577
0.7215	-74.1577
0.7216	-74.2188
0.7217	-74.1882
0.7218	-74.1882
0.7219	-74.2188
0.722	-74.1272
0.7221	-74.1882
0.7222	-74.1882
0.7223	-74.1882
0.7224	-74.1882
0.7225	-74.1577
0.7226	-74.1882
0.7227	-74.1882
0.7228	-74.2493
0.7229	-74.2493
0.723	-74.2798
0.7231	-74.2188
0.7232	-74.2798
0.7233	-74.2493
0.7234	-74.2493
0.7235	-74.2493
0.7236	-74.2798
0.7237	-74.2493
0.7238	-74.2188
0.7239	-74.2798
0.724	-74.2493
0.7241	-74.1882
0.7242	-74.2493
0.7243	-74.2493
0.7244	-74.2188
0.7245	-74.3103
0.7246	-74.2493
0.7247	-74.3103
0.7248	-74.3408
0.7249	-74.2798
0.725	-74.2798
0.7251	-74.3103
0.7252	-74.2493
0.7253	-74.3103
0.7254	-74.2798
0.7255	-74.2798
0.7256	-74.3408
0.7257	-74.2798
0.7258	-74.2798
0.7259	-74.3103
0.726	-74.3408
0.7261	-74.3408
0.7262	-74.3103
0.7263	-74.3408
0.7264	-74.3103
0.7265	-74.3713
0.7266	-74.4019
0.7267	-74.3713
0.7268	-74.3408
0.7269	-74.3408
0.727	-74.3408
0.7271	-74.4324
0.7272	-74.3713
0.7273	-74.3408
0.7274	-74.3713
0.7275	-74.4324
0.7276	-74.3408
0.7277	-74.3713
0.7278	-74.3103
0.7279	-74.2798
0.728	-74.3713
0.7281	-74.3103
0.7282	-74.2798
0.7283	-74.3103
0.7284	-74.3103
0.7285	-74.3103
0.7286	-74.3408
0.7287	-74.3103
0.7288	-74.3103
0.7289	-74.3408
0.729	-74.3103
0.7291	-74.3408
0.7292	-74.3713
0.7293	-74.3408
0.7294	-74.3713
0.7295	-74.3408
0.7296	-74.3103
0.7297	-74.3713
0.7298	-74.3713
0.7299	-74.3103
0.73	-74.3713
0.7301	-74.3408
0.7302	-74.3408
0.7303	-74.4019
0.7304	-74.3103
0.7305	-74.3408
0.7306	-74.3408
0.7307	-74.2798
0.7308	-74.3103
0.7309	-74.3713
0.731	-74.3103
0.7311	-74.3408
0.7312	-74.4324
0.7313	-74.3713
0.7314	-74.3713
0.7315	-74.4019
0.7316	-74.3713
0.7317	-74.3408
0.7318	-74.4324
0.7319	-74.4019
0.732	-74.4324
0.7321	-74.4019
0.7322	-74.4019
0.7323	-74.4019
0.7324	-74.4324
0.7325	-74.3408
0.7326	-74.3713
0.7327	-74.4019
0.7328	-74.3713
0.7329	-74.3713
0.733	-74.3713
0.7331	-74.3408
0.7332	-74.4019
0.7333	-74.3408
0.7334	-74.3103
0.7335	-74.3103
0.7336	-74.3103
0.7337	-74.2493
0.7338	-74.3713
0.7339	-74.3103
0.734	-74.2798
0.7341	-74.2798
0.7342	-74.3103
0.7343	-74.2798
0.7344	-74.3408
0.7345	-74.3408
0.7346	-74.3103
0.7347	-74.3408
0.7348	-74.2798
0.7349	-74.3103
0.735	-74.3713
0.7351	-74.3103
0.7352	-74.3103
0.7353	-74.3103
0.7354	-74.2188
0.7355	-74.2798
0.7356	-74.3103
0.7357	-74.3103
0.7358	-74.3103
0.7359	-74.3103
0.736	-74.2798
0.7361	-74.3103
0.7362	-74.3408
0.7363	-74.3103
0.7364	-74.2798
0.7365	-74.3103
0.7366	-74.3103
0.7367	-74.3103
0.7368	-74.2798
0.7369	-74.2493
0.737	-74.3103
0.7371	-74.2493
0.7372	-74.2493
0.7373	-74.2493
0.7374	-74.1882
0.7375	-74.1577
0.7376	-74.2188
0.7377	-74.2188
0.7378	-74.1577
0.7379	-74.2188
0.738	-74.1577
0.7381	-74.2493
0.7382	-74.2798
0.7383	-74.2493
0.7384	-74.2493
0.7385	-74.2493
0.7386	-74.1882
0.7387	-74.2493
0.7388	-74.2188
0.7389	-74.2188
0.739	-74.2188
0.7391	-74.2493
0.7392	-74.2188
0.7393	-74.2188
0.7394	-74.1882
0.7395	-74.2188
0.7396	-74.2493
0.7397	-74.2188
0.7398	-74.1882
0.7399	-74.2493
0.74	-74.2188
0.7401	-74.2188
0.7402	-74.2493
0.7403	-74.1882
0.7404	-74.1882
0.7405	-74.2798
0.7406	-74.2188
0.7407	-74.1882
0.7408	-74.2798
0.7409	-74.2493
0.741	-74.2493
0.7411	-74.2493
0.7412	-74.2188
0.7413	-74.2493
0.7414	-74.2493
0.7415	-74.2798
0.7416	-74.2798
0.7417	-74.3408
0.7418	-74.2798
0.7419	-74.2798
0.742	-74.3408
0.7421	-74.3103
0.7422	-74.2798
0.7423	-74.3103
0.7424	-74.3103
0.7425	-74.3408
0.7426	-74.4019
0.7427	-74.3408
0.7428	-74.3713
0.7429	-74.3408
0.743	-74.3713
0.7431	-74.3713
0.7432	-74.3713
0.7433	-74.3713
0.7434	-74.4324
0.7435	-74.4019
0.7436	-74.3713
0.7437	-74.4324
0.7438	-74.3408
0.7439	-74.3103
0.744	-74.3713
0.7441	-74.3713
0.7442	-74.3408
0.7443	-74.3713
0.7444	-74.3103
0.7445	-74.3103
0.7446	-74.3408
0.7447	-74.3103
0.7448	-74.2798
0.7449	-74.3103
0.745	-74.3713
0.7451	-74.3103
0.7452	-74.3408
0.7453	-74.3103
0.7454	-74.3713
0.7455	-74.3713
0.7456	-74.3408
0.7457	-74.3408
0.7458	-74.3713
0.7459	-74.3713
0.746	-74.4019
0.7461	-74.4019
0.7462	-74.4019
0.7463	-74.4629
0.7464	-74.3713
0.7465	-74.4019
0.7466	-74.4019
0.7467	-74.4324
0.7468	-74.3713
0.7469	-74.3713
0.747	-74.3408
0.7471	-74.3408
0.7472	-74.3713
0.7473	-74.3408
0.7474	-74.3408
0.7475	-74.3713
0.7476	-74.3408
0.7477	-74.3408
0.7478	-74.3713
0.7479	-74.3713
0.748	-74.3103
0.7481	-74.3713
0.7482	-74.4019
0.7483	-74.3408
0.7484	-74.3713
0.7485	-74.3713
0.7486	-74.3408
0.7487	-74.4019
0.7488	-74.3713
0.7489	-74.4019
0.749	-74.3408
0.7491	-74.3103
0.7492	-74.3408
0.7493	-74.3713
0.7494	-74.3408
0.7495	-74.3408
0.7496	-74.3408
0.7497	-74.3408
0.7498	-74.3408
0.7499	-74.3103
0.75	-74.2798
0.7501	-74.3408
0.7502	-74.3408
0.7503	-74.2493
0.7504	-74.3713
0.7505	-74.2798
0.7506	-74.2798
0.7507	-74.3103
0.7508	-74.3103
0.7509	-74.2493
0.751	-74.3103
0.7511	-74.2493
0.7512	-74.2798
0.7513	-74.3103
0.7514	-74.2798
0.7515	-74.3103
0.7516	-74.3408
0.7517	-74.2493
0.7518	-74.2188
0.7519	-74.2798
0.752	-74.2493
0.7521	-74.3103
0.7522	-74.3103
0.7523	-74.2798
0.7524	-74.2798
0.7525	-74.3103
0.7526	-74.2798
0.7527	-74.3103
0.7528	-74.3713
0.7529	-74.3408
0.753	-74.3713
0.7531	-74.3408
0.7532	-74.3103
0.7533	-74.3103
0.7534	-74.2798
0.7535	-74.2798
0.7536	-74.2798
0.7537	-74.2798
0.7538	-74.2798
0.7539	-74.3408
0.754	-74.3103
0.7541	-74.2798
0.7542	-74.2493
0.7543	-74.2493
0.7544	-74.2493
0.7545	-74.3103
0.7546	-74.2493
0.7547	-74.2798
0.7548	-74.3103
0.7549	-74.3103
0.755	-74.3103
0.7551	-74.3408
0.7552	-74.3103
0.7553	-74.3408
0.7554	-74.3713
0.7555	-74.3713
0.7556	-74.4019
0.7557	-74.3713
0.7558	-74.3713
0.7559	-74.3713
0.756	-74.3713
0.7561	-74.3713
0.7562	-74.3713
0.7563	-74.4629
0.7564	-74.4019
0.7565	-74.4019
0.7566	-74.3713
0.7567	-74.4019
0.7568	-74.4324
0.7569	-74.3713
0.757	-74.3408
0.7571	-74.3408
0.7572	-74.3103
0.7573	-74.3408
0.7574	-74.4019
0.7575	-74.4019
0.7576	-74.3713
0.7577	-74.4324
0.7578	-74.3713
0.7579	-74.4019
0.758	-74.4629
0.7581	-74.3408
0.7582	-74.3713
0.7583	-74.4324
0.7584	-74.4019
0.7585	-74.3713
0.7586	-74.4019
0.7587	-74.3713
0.7588	-74.4019
0.7589	-74.4324
0.759	-74.3713
0.7591	-74.4019
0.7592	-74.4324
0.7593	-74.3713
0.7594	-74.4019
0.7595	-74.4019
0.7596	-74.4324
0.7597	-74.4019
0.7598	-74.4324
0.7599	-74.4019
0.76	-74.4324
0.7601	-74.4324
0.7602	-74.3713
0.7603	-74.4019
0.7604	-74.4019
0.7605	-74.3713
0.7606	-74.4629
0.7607	-74.4324
0.7608	-74.3713
0.7609	-74.4019
0.761	-74.3408
0.7611	-74.3713
0.7612	-74.4324
0.7613	-74.3408
0.7614	-74.3408
0.7615	-74.3713
0.7616	-74.3713
0.7617	-74.3713
0.7618	-74.4019
0.7619	-74.4019
0.762	-74.3713
0.7621	-74.4629
0.7622	-74.4324
0.7623	-74.4019
0.7624	-74.4324
0.7625	-74.3713
0.7626	-74.4324
0.7627	-74.4629
0.7628	-74.4324
0.7629	-74.4629
0.763	-74.4019
0.7631	-74.4019
0.7632	-74.4934
0.7633	-74.4324
0.7634	-74.4019
0.7635	-74.4324
0.7636	-74.4019
0.7637	-74.4019
0.7638	-74.4324
0.7639	-74.4324
0.764	-74.4019
0.7641	-74.4324
0.7642	-74.4019
0.7643	-74.3713
0.7644	-74.4324
0.7645	-74.4019
0.7646	-74.4019
0.7647	-74.4324
0.7648	-74.4019
0.7649	-74.4324
0.765	-74.4629
0.7651	-74.4019
0.7652	-74.4019
0.7653	-74.4324
0.7654	-74.4019
0.7655	-74.4934
0.7656	-74.4629
0.7657	-74.4629
0.7658	-74.4019
0.7659	-74.4629
0.766	-74.4019
0.7661	-74.4019
0.7662	-74.3713
0.7663	-74.3713
0.7664	-74.3713
0.7665	-74.3713
0.7666	-74.3408
0.7667	-74.2798
0.7668	-74.3713
0.7669	-74.3103
0.767	-74.3408
0.7671	-74.3103
0.7672	-74.3103
0.7673	-74.3713
0.7674	-74.3408
0.7675	-74.3408
0.7676	-74.4019
0.7677	-74.3103
0.7678	-74.2798
0.7679	-74.3408
0.768	-74.3103
0.7681	-74.2493
0.7682	-74.3408
0.7683	-74.3103
0.7684	-74.2493
0.7685	-74.2798
0.7686	-74.2493
0.7687	-74.2188
0.7688	-74.2798
0.7689	-74.2493
0.769	-74.2493
0.7691	-74.2798
0.7692	-74.2798
0.7693	-74.3408
0.7694	-74.3103
0.7695	-74.3103
0.7696	-74.3103
0.7697	-74.3103
0.7698	-74.2798
0.7699	-74.3103
0.77	-74.2798
0.7701	-74.2493
0.7702	-74.3103
0.7703	-74.3103
0.7704	-74.3103
0.7705	-74.3408
0.7706	-74.2798
0.7707	-74.2798
0.7708	-74.3103
0.7709	-74.2493
0.771	-74.2493
0.7711	-74.3103
0.7712	-74.2493
0.7713	-74.2798
0.7714	-74.2798
0.7715	-74.2493
0.7716	-74.2798
0.7717	-74.3408
0.7718	-74.2798
0.7719	-74.2798
0.772	-74.3103
0.7721	-74.2798
0.7722	-74.2798
0.7723	-74.2798
0.7724	-74.3103
0.7725	-74.3103
0.7726	-74.3103
0.7727	-74.3103
0.7728	-74.3408
0.7729	-74.3103
0.773	-74.2798
0.7731	-74.3408
0.7732	-74.3408
0.7733	-74.3713
0.7734	-74.3408
0.7735	-74.3408
0.7736	-74.3408
0.7737	-74.3713
0.7738	-74.3103
0.7739	-74.2798
0.774	-74.3713
0.7741	-74.3713
0.7742	-74.3713
0.7743	-74.4324
0.7744	-74.3713
0.7745	-74.3408
0.7746	-74.3713
0.7747	-74.3713
0.7748	-74.3408
0.7749	-74.4019
0.775	-74.3408
0.7751	-74.3408
0.7752	-74.3713
0.7753	-74.3408
0.7754	-74.3713
0.7755	-74.4019
0.7756	-74.3713
0.7757	-74.3713
0.7758	-74.3408
0.7759	-74.3713
0.776	-74.3103
0.7761	-74.3713
0.7762	-74.3713
0.7763	-74.4019
0.7764	-74.4019
0.7765	-74.3408
0.7766	-74.4324
0.7767	-74.4019
0.7768	-74.3713
0.7769	-74.3713
0.777	-74.3713
0.7771	-74.3408
0.7772	-74.3408
0.7773	-74.3713
0.7774	-74.3103
0.7775	-74.3713
0.7776	-74.3103
0.7777	-74.3103
0.7778	-74.4019
0.7779	-74.3103
0.778	-74.3103
0.7781	-74.3713
0.7782	-74.3713
0.7783	-74.3103
0.7784	-74.3408
0.7785	-74.3103
0.7786	-74.3408
0.7787	-74.4019
0.7788	-74.3408
0.7789	-74.3713
0.779	-74.4324
0.7791	-74.4934
0.7792	-74.4324
0.7793	-74.4629
0.7794	-74.4324
0.7795	-74.4019
0.7796	-74.4629
0.7797	-74.4019
0.7798	-74.4019
0.7799	-74.4629
0.78	-74.3713
0.7801	-74.3713
0.7802	-74.3713
0.7803	-74.3103
0.7804	-74.3713
0.7805	-74.3713
0.7806	-74.4019
0.7807	-74.3713
0.7808	-74.3408
0.7809	-74.3408
0.781	-74.3713
0.7811	-74.3713
0.7812	-74.4019
0.7813	-74.4629
0.7814	-74.4019
0.7815	-74.4019
0.7816	-74.4019
0.7817	-74.3713
0.7818	-74.3713
0.7819	-74.4019
0.782	-74.3713
0.7821	-74.3713
0.7822	-74.3713
0.7823	-74.3713
0.7824	-74.3713
0.7825	-74.3713
0.7826	-74.3408
0.7827	-74.3713
0.7828	-74.3408
0.7829	-74.2798
0.783	-74.3103
0.7831	-74.3103
0.7832	-74.2798
0.7833	-74.3103
0.7834	-74.3408
0.7835	-74.2798
0.7836	-74.2798
0.7837	-74.2798
0.7838	-74.2493
0.7839	-74.2798
0.784	-74.2798
0.7841	-74.2493
0.7842	-74.3103
0.7843	-74.3408
0.7844	-74.2798
0.7845	-74.3408
0.7846	-74.2798
0.7847	-74.3408
0.7848	-74.3408
0.7849	-74.3408
0.785	-74.3103
0.7851	-74.3408
0.7852	-74.3408
0.7853	-74.3103
0.7854	-74.3103
0.7855	-74.3103
0.7856	-74.2798
0.7857	-74.3103
0.7858	-74.3103
0.7859	-74.3408
0.786	-74.3713
0.7861	-74.3103
0.7862	-74.3408
0.7863	-74.3103
0.7864	-74.3103
0.7865	-74.3713
0.7866	-74.3408
0.7867	-74.3103
0.7868	-74.3408
0.7869	-74.2798
0.787	-74.2493
0.7871	-74.2798
0.7872	-74.3103
0.7873	-74.2798
0.7874	-74.3103
0.7875	-74.2493
0.7876	-74.2188
0.7877	-74.2798
0.7878	-74.1882
0.7879	-74.2493
0.788	-74.2798
0.7881	-74.2493
0.7882	-74.2493
0.7883	-74.3103
0.7884	-74.2798
0.7885	-74.2493
0.7886	-74.3103
0.7887	-74.2798
0.7888	-74.2493
0.7889	-74.2798
0.789	-74.3103
0.7891	-74.2798
0.7892	-74.3103
0.7893	-74.2798
0.7894	-74.2493
0.7895	-74.2798
0.7896	-74.2798
0.7897	-74.2493
0.7898	-74.2493
0.7899	-74.2188
0.79	-74.2188
0.7901	-74.2188
0.7902	-74.2493
0.7903	-74.2493
0.7904	-74.2188
0.7905	-74.2493
0.7906	-74.2493
0.7907	-74.2188
0.7908	-74.2188
0.7909	-74.2493
0.791	-74.2188
0.7911	-74.2493
0.7912	-74.3103
0.7913	-74.2798
0.7914	-74.2798
0.7915	-74.3103
0.7916	-74.2798
0.7917	-74.2798
0.7918	-74.3713
0.7919	-74.3103
0.792	-74.3103
0.7921	-74.3408
0.7922	-74.2798
0.7923	-74.3408
0.7924	-74.3713
0.7925	-74.3408
0.7926	-74.3713
0.7927	-74.3713
0.7928	-74.3408
0.7929	-74.3713
0.793	-74.4019
0.7931	-74.3713
0.7932	-74.3713
0.7933	-74.4629
0.7934	-74.3713
0.7935	-74.4019
0.7936	-74.3713
0.7937	-74.4019
0.7938	-74.3713
0.7939	-74.3713
0.794	-74.3713
0.7941	-74.3713
0.7942	-74.3408
0.7943	-74.3103
0.7944	-74.3713
0.7945	-74.3408
0.7946	-74.3408
0.7947	-74.4019
0.7948	-74.4019
0.7949	-74.4019
0.795	-74.4019
0.7951	-74.3713
0.7952	-74.3408
0.7953	-74.4629
0.7954	-74.4019
0.7955	-74.4324
0.7956	-74.4934
0.7957	-74.4629
0.7958	-74.4629
0.7959	-74.5544
0.796	-74.4629
0.7961	-74.4934
0.7962	-74.4934
0.7963	-74.4324
0.7964	-74.4324
0.7965	-74.4324
0.7966	-74.4019
0.7967	-74.4324
0.7968	-74.4324
0.7969	-74.4629
0.797	-74.4019
0.7971	-74.3713
0.7972	-74.3713
0.7973	-74.4324
0.7974	-74.3713
0.7975	-74.4019
0.7976	-74.4019
0.7977	-74.4019
0.7978	-74.3713
0.7979	-74.4019
0.798	-74.4324
0.7981	-74.4019
0.7982	-74.4629
0.7983	-74.4019
0.7984	-74.4019
0.7985	-74.4324
0.7986	-74.4019
0.7987	-74.4019
0.7988	-74.4629
0.7989	-74.4324
0.799	-74.4629
0.7991	-74.4629
0.7992	-74.4019
0.7993	-74.4324
0.7994	-74.4019
0.7995	-74.3713
0.7996	-74.4019
0.7997	-74.4629
0.7998	-74.4019
0.7999	-74.4324
0.8	-74.3713
0.8001	-74.3713
0.8002	-74.4324
0.8003	-74.4019
0.8004	-74.4019
0.8005	-74.4019
0.8006	-74.4019
0.8007	-74.4019
0.8008	-74.4324
0.8009	-74.4019
0.801	-74.3408
0.8011	-74.4019
0.8012	-74.3713
0.8013	-74.3408
0.8014	-74.3408
0.8015	-74.3103
0.8016	-74.3408
0.8017	-74.3408
0.8018	-74.3408
0.8019	-74.3103
0.802	-74.3713
0.8021	-74.3103
0.8022	-74.3408
0.8023	-74.3713
0.8024	-74.3713
0.8025	-74.3408
0.8026	-74.3713
0.8027	-74.3103
0.8028	-74.3713
0.8029	-74.3713
0.803	-74.3713
0.8031	-74.3713
0.8032	-74.3408
0.8033	-74.2798
0.8034	-74.3103
0.8035	-74.2798
0.8036	-74.2798
0.8037	-74.2493
0.8038	-74.2493
0.8039	-74.2493
0.804	-74.2493
0.8041	-74.2493
0.8042	-74.1882
0.8043	-74.1882
0.8044	-74.2188
0.8045	-74.2493
0.8046	-74.2493
0.8047	-74.2493
0.8048	-74.2188
0.8049	-74.2798
0.805	-74.2188
0.8051	-74.2188
0.8052	-74.3103
0.8053	-74.2188
0.8054	-74.2798
0.8055	-74.3103
0.8056	-74.2798
0.8057	-74.2798
0.8058	-74.3103
0.8059	-74.3103
0.806	-74.2798
0.8061	-74.3103
0.8062	-74.2798
0.8063	-74.3408
0.8064	-74.3408
0.8065	-74.3103
0.8066	-74.2798
0.8067	-74.3103
0.8068	-74.3103
0.8069	-74.3103
0.807	-74.2493
0.8071	-74.2493
0.8072	-74.2798
0.8073	-74.2798
0.8074	-74.2798
0.8075	-74.2798
0.8076	-74.2493
0.8077	-74.2493
0.8078	-74.3103
0.8079	-74.3408
0.808	-74.3103
0.8081	-74.3408
0.8082	-74.3103
0.8083	-74.3103
0.8084	-74.3713
0.8085	-74.2798
0.8086	-74.2493
0.8087	-74.3408
0.8088	-74.3408
0.8089	-74.3103
0.809	-74.3408
0.8091	-74.2798
0.8092	-74.2798
0.8093	-74.3408
0.8094	-74.3713
0.8095	-74.4019
0.8096	-74.3408
0.8097	-74.3713
0.8098	-74.3408
0.8099	-74.3408
0.81	-74.3408
0.8101	-74.3408
0.8102	-74.4019
0.8103	-74.3408
0.8104	-74.3713
0.8105	-74.3103
0.8106	-74.2798
0.8107	-74.3103
0.8108	-74.3103
0.8109	-74.2798
0.811	-74.3408
0.8111	-74.3103
0.8112	-74.3408
0.8113	-74.3408
0.8114	-74.2798
0.8115	-74.2798
0.8116	-74.2798
0.8117	-74.3103
0.8118	-74.2798
0.8119	-74.3408
0.812	-74.3103
0.8121	-74.3103
0.8122	-74.3713
0.8123	-74.3713
0.8124	-74.3408
0.8125	-74.3713
0.8126	-74.4019
0.8127	-74.4019
0.8128	-74.3713
0.8129	-74.3408
0.813	-74.3408
0.8131	-74.3713
0.8132	-74.3713
0.8133	-74.4019
0.8134	-74.3713
0.8135	-74.3713
0.8136	-74.4019
0.8137	-74.3713
0.8138	-74.3713
0.8139	-74.3713
0.814	-74.3713
0.8141	-74.3713
0.8142	-74.4019
0.8143	-74.3408
0.8144	-74.3103
0.8145	-74.3103
0.8146	-74.3408
0.8147	-74.3408
0.8148	-74.4019
0.8149	-74.4019
0.815	-74.4019
0.8151	-74.4019
0.8152	-74.3713
0.8153	-74.4019
0.8154	-74.4324
0.8155	-74.3713
0.8156	-74.3713
0.8157	-74.4324
0.8158	-74.3713
0.8159	-74.3408
0.816	-74.4324
0.8161	-74.4019
0.8162	-74.4019
0.8163	-74.4324
0.8164	-74.3713
0.8165	-74.4019
0.8166	-74.4324
0.8167	-74.4324
0.8168	-74.4019
0.8169	-74.4019
0.817	-74.4019
0.8171	-74.4324
0.8172	-74.4629
0.8173	-74.4019
0.8174	-74.4629
0.8175	-74.4324
0.8176	-74.4019
0.8177	-74.4019
0.8178	-74.4019
0.8179	-74.3713
0.818	-74.4019
0.8181	-74.4019
0.8182	-74.4019
0.8183	-74.4629
0.8184	-74.4324
0.8185	-74.3713
0.8186	-74.4629
0.8187	-74.4019
0.8188	-74.3713
0.8189	-74.4629
0.819	-74.4629
0.8191	-74.4629
0.8192	-74.5239
0.8193	-74.4324
0.8194	-74.4629
0.8195	-74.4629
0.8196	-74.4934
0.8197	-74.4629
0.8198	-74.4934
0.8199	-74.4934
0.82	-74.4324
0.8201	-74.4629
0.8202	-74.4324
0.8203	-74.4629
0.8204	-74.4629
0.8205	-74.4324
0.8206	-74.4324
0.8207	-74.4324
0.8208	-74.4019
0.8209	-74.3713
0.821	-74.3713
0.8211	-74.3713
0.8212	-74.4324
0.8213	-74.3713
0.8214	-74.3408
0.8215	-74.4324
0.8216	-74.4324
0.8217	-74.3713
0.8218	-74.4934
0.8219	-74.4019
0.822	-74.4019
0.8221	-74.4019
0.8222	-74.3713
0.8223	-74.4324
0.8224	-74.4629
0.8225	-74.4324
0.8226	-74.4324
0.8227	-74.4629
0.8228	-74.4324
0.8229	-74.4019
0.823	-74.4629
0.8231	-74.4019
0.8232	-74.3713
0.8233	-74.4019
0.8234	-74.4324
0.8235	-74.3713
0.8236	-74.4019
0.8237	-74.3408
0.8238	-74.3713
0.8239	-74.4019
0.824	-74.4019
0.8241	-74.4019
0.8242	-74.4019
0.8243	-74.3713
0.8244	-74.4629
0.8245	-74.3713
0.8246	-74.3713
0.8247	-74.4019
0.8248	-74.3713
0.8249	-74.3713
0.825	-74.4019
0.8251	-74.3408
0.8252	-74.3103
0.8253	-74.4019
0.8254	-74.3103
0.8255	-74.2798
0.8256	-74.3103
0.8257	-74.2493
0.8258	-74.3103
0.8259	-74.3713
0.826	-74.2798
0.8261	-74.3103
0.8262	-74.3103
0.8263	-74.3103
0.8264	-74.3408
0.8265	-74.4019
0.8266	-74.3103
0.8267	-74.3408
0.8268	-74.3713
0.8269	-74.3408
0.827	-74.3408
0.8271	-74.4019
0.8272	-74.3103
0.8273	-74.3408
0.8274	-74.3103
0.8275	-74.2798
0.8276	-74.3408
0.8277	-74.2798
0.8278	-74.2493
0.8279	-74.3103
0.828	-74.3103
0.8281	-74.2798
0.8282	-74.3408
0.8283	-74.2798
0.8284	-74.2493
0.8285	-74.3408
0.8286	-74.2798
0.8287	-74.3103
0.8288	-74.3408
0.8289	-74.3408
0.829	-74.3103
0.8291	-74.3408
0.8292	-74.3103
0.8293	-74.3408
0.8294	-74.3408
0.8295	-74.3713
0.8296	-74.3408
0.8297	-74.3713
0.8298	-74.2798
0.8299	-74.3408
0.83	-74.3103
0.8301	-74.3103
0.8302	-74.3103
0.8303	-74.3103
0.8304	-74.3103
0.8305	-74.2798
0.8306	-74.3103
0.8307	-74.2798
0.8308	-74.2493
0.8309	-74.2798
0.831	-74.2493
0.8311	-74.2798
0.8312	-74.1882
0.8313	-74.2188
0.8314	-74.3103
0.8315	-74.2493
0.8316	-74.2188
0.8317	-74.2493
0.8318	-74.2493
0.8319	-74.2798
0.832	-74.3408
0.8321	-74.2188
0.8322	-74.2493
0.8323	-74.3103
0.8324	-74.2798
0.8325	-74.2493
0.8326	-74.2798
0.8327	-74.2798
0.8328	-74.2798
0.8329	-74.3103
0.833	-74.2493
0.8331	-74.2493
0.8332	-74.2493
0.8333	-74.2493
0.8334	-74.2493
0.8335	-74.2798
0.8336	-74.2493
0.8337	-74.2798
0.8338	-74.2493
0.8339	-74.2188
0.834	-74.2798
0.8341	-74.2798
0.8342	-74.2493
0.8343	-74.3103
0.8344	-74.2798
0.8345	-74.2493
0.8346	-74.2798
0.8347	-74.2798
0.8348	-74.2188
0.8349	-74.2798
0.835	-74.2493
0.8351	-74.2493
0.8352	-74.3103
0.8353	-74.3103
0.8354	-74.2188
0.8355	-74.3103
0.8356	-74.2493
0.8357	-74.2493
0.8358	-74.2798
0.8359	-74.2798
0.836	-74.2798
0.8361	-74.3408
0.8362	-74.3103
0.8363	-74.2493
0.8364	-74.2798
0.8365	-74.2493
0.8366	-74.2798
0.8367	-74.2798
0.8368	-74.2493
0.8369	-74.2188
0.837	-74.2493
0.8371	-74.1882
0.8372	-74.1882
0.8373	-74.1882
0.8374	-74.1272
0.8375	-74.1882
0.8376	-74.2188
0.8377	-74.1577
0.8378	-74.2188
0.8379	-74.2493
0.838	-74.2188
0.8381	-74.2798
0.8382	-74.2188
0.8383	-74.2493
0.8384	-74.2798
0.8385	-74.2798
0.8386	-74.3103
0.8387	-74.3408
0.8388	-74.2493
0.8389	-74.3103
0.839	-74.3713
0.8391	-74.3713
0.8392	-74.3408
0.8393	-74.4324
0.8394	-74.3713
0.8395	-74.3103
0.8396	-74.4019
0.8397	-74.3408
0.8398	-74.3408
0.8399	-74.3103
0.84	-74.2493
0.8401	-74.2188
0.8402	-74.2493
0.8403	-74.2188
0.8404	-74.2493
0.8405	-74.2798
0.8406	-74.2188
0.8407	-74.2188
0.8408	-74.1882
0.8409	-74.2493
0.841	-74.2188
0.8411	-74.2188
0.8412	-74.1882
0.8413	-74.2493
0.8414	-74.2188
0.8415	-74.2493
0.8416	-74.2493
0.8417	-74.1882
0.8418	-74.1577
0.8419	-74.2188
0.842	-74.2188
0.8421	-74.1882
0.8422	-74.2493
0.8423	-74.2188
0.8424	-74.2188
0.8425	-74.3103
0.8426	-74.2188
0.8427	-74.2188
0.8428	-74.2493
0.8429	-74.2188
0.843	-74.2188
0.8431	-74.2798
0.8432	-74.2188
0.8433	-74.2493
0.8434	-74.2798
0.8435	-74.2493
0.8436	-74.1882
0.8437	-74.2798
0.8438	-74.2188
0.8439	-74.2188
0.844	-74.3103
0.8441	-74.2493
0.8442	-74.2493
0.8443	-74.2798
0.8444	-74.2188
0.8445	-74.2493
0.8446	-74.2493
0.8447	-74.2798
0.8448	-74.3103
0.8449	-74.2493
0.845	-74.2493
0.8451	-74.2493
0.8452	-74.2493
0.8453	-74.2798
0.8454	-74.3408
0.8455	-74.3103
0.8456	-74.3103
0.8457	-74.3408
0.8458	-74.3408
0.8459	-74.3713
0.846	-74.3713
0.8461	-74.3408
0.8462	-74.3408
0.8463	-74.3408
0.8464	-74.3103
0.8465	-74.3103
0.8466	-74.3103
0.8467	-74.3103
0.8468	-74.2798
0.8469	-74.3408
0.847	-74.3408
0.8471	-74.3713
0.8472	-74.3713
0.8473	-74.3103
0.8474	-74.3408
0.8475	-74.3713
0.8476	-74.3103
0.8477	-74.3713
0.8478	-74.3713
0.8479	-74.3408
0.848	-74.3408
0.8481	-74.3713
0.8482	-74.3103
0.8483	-74.3103
0.8484	-74.3103
0.8485	-74.2798
0.8486	-74.4019
0.8487	-74.3408
0.8488	-74.3408
0.8489	-74.4019
0.849	-74.3408
0.8491	-74.3103
0.8492	-74.3713
0.8493	-74.3103
0.8494	-74.2798
0.8495	-74.2493
0.8496	-74.2798
0.8497	-74.2493
0.8498	-74.3103
0.8499	-74.2493
0.85	-74.2493
0.8501	-74.3103
0.8502	-74.2493
0.8503	-74.2493
0.8504	-74.3103
0.8505	-74.2493
0.8506	-74.2798
0.8507	-74.3408
0.8508	-74.1882
0.8509	-74.2798
0.851	-74.2493
0.8511	-74.2798
0.8512	-74.3103
0.8513	-74.2798
0.8514	-74.2798
0.8515	-74.2493
0.8516	-74.2798
0.8517	-74.2188
0.8518	-74.2493
0.8519	-74.2493
0.852	-74.2493
0.8521	-74.2798
0.8522	-74.2493
0.8523	-74.2188
0.8524	-74.2798
0.8525	-74.2798
0.8526	-74.2798
0.8527	-74.2798
0.8528	-74.3103
0.8529	-74.2493
0.853	-74.2798
0.8531	-74.2798
0.8532	-74.2493
0.8533	-74.2493
0.8534	-74.2798
0.8535	-74.2188
0.8536	-74.2493
0.8537	-74.2188
0.8538	-74.2493
0.8539	-74.2493
0.854	-74.2188
0.8541	-74.2188
0.8542	-74.2493
0.8543	-74.1882
0.8544	-74.1882
0.8545	-74.1882
0.8546	-74.1272
0.8547	-74.1577
0.8548	-74.1577
0.8549	-74.0967
0.855	-74.1577
0.8551	-74.2493
0.8552	-74.1577
0.8553	-74.2493
0.8554	-74.1577
0.8555	-74.1577
0.8556	-74.1882
0.8557	-74.1577
0.8558	-74.1577
0.8559	-74.2188
0.856	-74.1577
0.8561	-74.0967
0.8562	-74.1577
0.8563	-74.1577
0.8564	-74.2188
0.8565	-74.2188
0.8566	-74.1577
0.8567	-74.1577
0.8568	-74.1882
0.8569	-74.1882
0.857	-74.1272
0.8571	-74.1577
0.8572	-74.0967
0.8573	-74.0967
0.8574	-74.1272
0.8575	-74.1272
0.8576	-74.1882
0.8577	-74.1577
0.8578	-74.0967
0.8579	-74.1272
0.858	-74.1577
0.8581	-74.1577
0.8582	-74.1272
0.8583	-74.1882
0.8584	-74.1272
0.8585	-74.1577
0.8586	-74.2188
0.8587	-74.1577
0.8588	-74.2188
0.8589	-74.1882
0.859	-74.1882
0.8591	-74.2493
0.8592	-74.2188
0.8593	-74.1882
0.8594	-74.1882
0.8595	-74.1577
0.8596	-74.1577
0.8597	-74.2493
0.8598	-74.1882
0.8599	-74.1882
0.86	-74.2493
0.8601	-74.1577
0.8602	-74.2493
0.8603	-74.2188
0.8604	-74.2188
0.8605	-74.1882
0.8606	-74.2493
0.8607	-74.1577
0.8608	-74.1882
0.8609	-74.1577
0.861	-74.1577
0.8611	-74.1882
0.8612	-74.1577
0.8613	-74.1272
0.8614	-74.1272
0.8615	-74.2188
0.8616	-74.1577
0.8617	-74.1882
0.8618	-74.1882
0.8619	-74.2188
0.862	-74.2798
0.8621	-74.2493
0.8622	-74.2188
0.8623	-74.2493
0.8624	-74.2188
0.8625	-74.2188
0.8626	-74.2798
0.8627	-74.2493
0.8628	-74.2798
0.8629	-74.2493
0.863	-74.1882
0.8631	-74.2188
0.8632	-74.2798
0.8633	-74.1577
0.8634	-74.1272
0.8635	-74.2188
0.8636	-74.1577
0.8637	-74.1577
0.8638	-74.1577
0.8639	-74.1577
0.864	-74.1272
0.8641	-74.1272
0.8642	-74.1272
0.8643	-74.0662
0.8644	-74.0967
0.8645	-74.1272
0.8646	-74.1577
0.8647	-74.1272
0.8648	-74.1272
0.8649	-74.1272
0.865	-74.1577
0.8651	-74.0967
0.8652	-74.1272
0.8653	-74.1272
0.8654	-74.1577
0.8655	-74.1272
0.8656	-74.0967
0.8657	-74.1272
0.8658	-74.1577
0.8659	-74.1272
0.866	-74.1577
0.8661	-74.1577
0.8662	-74.0967
0.8663	-74.0967
0.8664	-74.1272
0.8665	-74.0967
0.8666	-74.0662
0.8667	-74.0662
0.8668	-74.0356
0.8669	-74.0356
0.867	-74.0967
0.8671	-74.0967
0.8672	-74.0356
0.8673	-74.0967
0.8674	-74.0356
0.8675	-74.0967
0.8676	-74.0967
0.8677	-74.0051
0.8678	-74.0356
0.8679	-74.0356
0.868	-74.0662
0.8681	-74.0662
0.8682	-74.0356
0.8683	-74.0356
0.8684	-74.0356
0.8685	-74.0356
0.8686	-74.0356
0.8687	-74.0662
0.8688	-74.0356
0.8689	-74.0051
0.869	-74.0967
0.8691	-74.0662
0.8692	-74.0967
0.8693	-74.0967
0.8694	-74.0662
0.8695	-74.0051
0.8696	-74.0662
0.8697	-74.0356
0.8698	-74.0662
0.8699	-74.0662
0.87	-74.0356
0.8701	-74.0356
0.8702	-74.0356
0.8703	-74.0356
0.8704	-73.9746
0.8705	-74.0662
0.8706	-74.0356
0.8707	-74.0051
0.8708	-74.0051
0.8709	-74.0051
0.871	-74.0051
0.8711	-74.0356
0.8712	-74.0356
0.8713	-74.0356
0.8714	-74.0051
0.8715	-74.0356
0.8716	-74.0356
0.8717	-74.0662
0.8718	-74.0967
0.8719	-74.1577
0.872	-74.0967
0.8721	-74.0967
0.8722	-74.1272
0.8723	-74.1272
0.8724	-74.1272
0.8725	-74.1272
0.8726	-74.0967
0.8727	-74.0967
0.8728	-74.1882
0.8729	-74.0967
0.873	-74.1272
0.8731	-74.1272
0.8732	-74.1577
0.8733	-74.1577
0.8734	-74.1882
0.8735	-74.1272
0.8736	-74.1882
0.8737	-74.1577
0.8738	-74.1577
0.8739	-74.0967
0.874	-74.1577
0.8741	-74.1272
0.8742	-74.1882
0.8743	-74.1577
0.8744	-74.1272
0.8745	-74.2188
0.8746	-74.1882
0.8747	-74.1882
0.8748	-74.1882
0.8749	-74.2188
0.875	-74.1577
0.8751	-74.1882
0.8752	-74.1882
0.8753	-74.1272
0.8754	-74.1882
0.8755	-74.2188
0.8756	-74.2188
0.8757	-74.2493
0.8758	-74.2188
0.8759	-74.2188
0.876	-74.2188
0.8761	-74.2188
0.8762	-74.2493
0.8763	-74.2493
0.8764	-74.2493
0.8765	-74.2493
0.8766	-74.3408
0.8767	-74.2798
0.8768	-74.3103
0.8769	-74.3408
0.877	-74.2798
0.8771	-74.2493
0.8772	-74.2493
0.8773	-74.2493
0.8774	-74.2493
0.8775	-74.2493
0.8776	-74.2493
0.8777	-74.2493
0.8778	-74.2188
0.8779	-74.2188
0.878	-74.2188
0.8781	-74.2493
0.8782	-74.2493
0.8783	-74.3103
0.8784	-74.3408
0.8785	-74.2798
0.8786	-74.2798
0.8787	-74.3713
0.8788	-74.3103
0.8789	-74.3103
0.879	-74.3103
0.8791	-74.2798
0.8792	-74.3408
0.8793	-74.3103
0.8794	-74.3103
0.8795	-74.3408
0.8796	-74.3103
0.8797	-74.3103
0.8798	-74.3713
0.8799	-74.3103
0.88	-74.2493
0.8801	-74.3408
0.8802	-74.3408
0.8803	-74.3103
0.8804	-74.3713
0.8805	-74.3103
0.8806	-74.2798
0.8807	-74.3713
0.8808	-74.2798
0.8809	-74.2798
0.881	-74.3103
0.8811	-74.2798
0.8812	-74.3103
0.8813	-74.3103
0.8814	-74.2798
0.8815	-74.3713
0.8816	-74.3103
0.8817	-74.2798
0.8818	-74.3713
0.8819	-74.4019
0.882	-74.3713
0.8821	-74.3103
0.8822	-74.3408
0.8823	-74.3103
0.8824	-74.4019
0.8825	-74.3408
0.8826	-74.3408
0.8827	-74.4019
0.8828	-74.3408
0.8829	-74.3408
0.883	-74.3713
0.8831	-74.3408
0.8832	-74.3713
0.8833	-74.3713
0.8834	-74.3713
0.8835	-74.3713
0.8836	-74.3713
0.8837	-74.3408
0.8838	-74.3713
0.8839	-74.3713
0.884	-74.3713
0.8841	-74.4019
0.8842	-74.4019
0.8843	-74.4019
0.8844	-74.3713
0.8845	-74.3713
0.8846	-74.3408
0.8847	-74.3713
0.8848	-74.3713
0.8849	-74.3408
0.885	-74.3713
0.8851	-74.3713
0.8852	-74.3408
0.8853	-74.3408
0.8854	-74.3408
0.8855	-74.3408
0.8856	-74.4019
0.8857	-74.3408
0.8858	-74.3408
0.8859	-74.3713
0.886	-74.3713
0.8861	-74.4019
0.8862	-74.4324
0.8863	-74.3713
0.8864	-74.3713
0.8865	-74.3713
0.8866	-74.3408
0.8867	-74.3103
0.8868	-74.3408
0.8869	-74.3408
0.887	-74.3713
0.8871	-74.3713
0.8872	-74.2798
0.8873	-74.2798
0.8874	-74.3103
0.8875	-74.2798
0.8876	-74.3103
0.8877	-74.3408
0.8878	-74.3408
0.8879	-74.3103
0.888	-74.3408
0.8881	-74.3713
0.8882	-74.3713
0.8883	-74.3713
0.8884	-74.3103
0.8885	-74.3408
0.8886	-74.3103
0.8887	-74.3103
0.8888	-74.3408
0.8889	-74.3103
0.889	-74.2798
0.8891	-74.3408
0.8892	-74.3103
0.8893	-74.3408
0.8894	-74.4019
0.8895	-74.3713
0.8896	-74.3713
0.8897	-74.3713
0.8898	-74.4019
0.8899	-74.3713
0.89	-74.4019
0.8901	-74.3713
0.8902	-74.3408
0.8903	-74.3408
0.8904	-74.3408
0.8905	-74.3713
0.8906	-74.3713
0.8907	-74.3408
0.8908	-74.3408
0.8909	-74.3408
0.891	-74.3713
0.8911	-74.3713
0.8912	-74.4019
0.8913	-74.3408
0.8914	-74.3713
0.8915	-74.4019
0.8916	-74.3713
0.8917	-74.3713
0.8918	-74.3103
0.8919	-74.3408
0.892	-74.3713
0.8921	-74.2798
0.8922	-74.3103
0.8923	-74.3713
0.8924	-74.3713
0.8925	-74.3713
0.8926	-74.3408
0.8927	-74.3408
0.8928	-74.3103
0.8929	-74.4019
0.893	-74.3713
0.8931	-74.3713
0.8932	-74.4019
0.8933	-74.3713
0.8934	-74.3408
0.8935	-74.3713
0.8936	-74.3103
0.8937	-74.3713
0.8938	-74.3713
0.8939	-74.3103
0.894	-74.3408
0.8941	-74.3713
0.8942	-74.3408
0.8943	-74.3408
0.8944	-74.3408
0.8945	-74.2493
0.8946	-74.2798
0.8947	-74.3103
0.8948	-74.3408
0.8949	-74.3103
0.895	-74.3103
0.8951	-74.3103
0.8952	-74.3408
0.8953	-74.3713
0.8954	-74.3408
0.8955	-74.3408
0.8956	-74.2798
0.8957	-74.3408
0.8958	-74.4324
0.8959	-74.3713
0.896	-74.3713
0.8961	-74.4019
0.8962	-74.3408
0.8963	-74.3408
0.8964	-74.3713
0.8965	-74.3408
0.8966	-74.3103
0.8967	-74.3713
0.8968	-74.3103
0.8969	-74.3103
0.897	-74.3408
0.8971	-74.3103
0.8972	-74.3408
0.8973	-74.3408
0.8974	-74.3408
0.8975	-74.3103
0.8976	-74.3408
0.8977	-74.3408
0.8978	-74.3103
0.8979	-74.3103
0.898	-74.2798
0.8981	-74.2798
0.8982	-74.3103
0.8983	-74.3103
0.8984	-74.3408
0.8985	-74.3408
0.8986	-74.3103
0.8987	-74.3713
0.8988	-74.3103
0.8989	-74.2798
0.899	-74.3103
0.8991	-74.3103
0.8992	-74.2798
0.8993	-74.3408
0.8994	-74.2798
0.8995	-74.2798
0.8996	-74.3408
0.8997	-74.2798
0.8998	-74.2798
0.8999	-74.3103
0.9	-74.2798
0.9001	-74.3103
0.9002	-74.2798
0.9003	-74.2493
0.9004	-74.2493
0.9005	-74.2798
0.9006	-74.2493
0.9007	-74.2493
0.9008	-74.2493
0.9009	-74.2798
0.901	-74.2798
0.9011	-74.3103
0.9012	-74.3103
0.9013	-74.3103
0.9014	-74.2798
0.9015	-74.2798
0.9016	-74.3408
0.9017	-74.3103
0.9018	-74.2798
0.9019	-74.2493
0.902	-74.2798
0.9021	-74.2798
0.9022	-74.3103
0.9023	-74.3103
0.9024	-74.3408
0.9025	-74.3408
0.9026	-74.2798
0.9027	-74.3408
0.9028	-74.3713
0.9029	-74.3408
0.903	-74.3408
0.9031	-74.3713
0.9032	-74.3103
0.9033	-74.3103
0.9034	-74.3103
0.9035	-74.2798
0.9036	-74.2798
0.9037	-74.3103
0.9038	-74.1882
0.9039	-74.2493
0.904	-74.2798
0.9041	-74.2188
0.9042	-74.2493
0.9043	-74.2493
0.9044	-74.2188
0.9045	-74.2188
0.9046	-74.2493
0.9047	-74.2188
0.9048	-74.2493
0.9049	-74.2493
0.905	-74.2493
0.9051	-74.2188
0.9052	-74.2493
0.9053	-74.2493
0.9054	-74.2493
0.9055	-74.2798
0.9056	-74.2188
0.9057	-74.3103
0.9058	-74.2798
0.9059	-74.2798
0.906	-74.3103
0.9061	-74.2798
0.9062	-74.2188
0.9063	-74.3103
0.9064	-74.2493
0.9065	-74.2493
0.9066	-74.2493
0.9067	-74.2188
0.9068	-74.1882
0.9069	-74.2798
0.907	-74.2188
0.9071	-74.2188
0.9072	-74.2188
0.9073	-74.1882
0.9074	-74.2188
0.9075	-74.2493
0.9076	-74.2493
0.9077	-74.2188
0.9078	-74.2188
0.9079	-74.2493
0.908	-74.2798
0.9081	-74.2493
0.9082	-74.2188
0.9083	-74.2493
0.9084	-74.2493
0.9085	-74.1882
0.9086	-74.2493
0.9087	-74.2188
0.9088	-74.1577
0.9089	-74.1882
0.909	-74.1882
0.9091	-74.1882
0.9092	-74.2493
0.9093	-74.1882
0.9094	-74.2493
0.9095	-74.3103
0.9096	-74.3103
0.9097	-74.3103
0.9098	-74.3103
0.9099	-74.2493
0.91	-74.2493
0.9101	-74.2798
0.9102	-74.2798
0.9103	-74.2493
0.9104	-74.2798
0.9105	-74.2188
0.9106	-74.2798
0.9107	-74.2798
0.9108	-74.1882
0.9109	-74.2188
0.911	-74.2188
0.9111	-74.1882
0.9112	-74.2493
0.9113	-74.2493
0.9114	-74.2493
0.9115	-74.2493
0.9116	-74.2188
0.9117	-74.2188
0.9118	-74.2493
0.9119	-74.2188
0.912	-74.2493
0.9121	-74.2188
0.9122	-74.1882
0.9123	-74.2493
0.9124	-74.3408
0.9125	-74.3408
0.9126	-74.2798
0.9127	-74.3408
0.9128	-74.3103
0.9129	-74.3103
0.913	-74.3103
0.9131	-74.2493
0.9132	-74.2188
0.9133	-74.2798
0.9134	-74.2493
0.9135	-74.2493
0.9136	-74.2188
0.9137	-74.2493
0.9138	-74.2188
0.9139	-74.2188
0.914	-74.2493
0.9141	-74.2493
0.9142	-74.2493
0.9143	-74.2493
0.9144	-74.2493
0.9145	-74.2493
0.9146	-74.2798
0.9147	-74.3103
0.9148	-74.3103
0.9149	-74.3408
0.915	-74.3408
0.9151	-74.2798
0.9152	-74.2493
0.9153	-74.3103
0.9154	-74.3408
0.9155	-74.3103
0.9156	-74.3103
0.9157	-74.2798
0.9158	-74.2798
0.9159	-74.3103
0.916	-74.2798
0.9161	-74.2188
0.9162	-74.2798
0.9163	-74.1882
0.9164	-74.2188
0.9165	-74.2493
0.9166	-74.2188
0.9167	-74.1882
0.9168	-74.2493
0.9169	-74.1272
0.917	-74.1577
0.9171	-74.2493
0.9172	-74.1882
0.9173	-74.1577
0.9174	-74.2493
0.9175	-74.1882
0.9176	-74.1882
0.9177	-74.2188
0.9178	-74.2188
0.9179	-74.2188
0.918	-74.2493
0.9181	-74.1882
0.9182	-74.1882
0.9183	-74.2188
0.9184	-74.1577
0.9185	-74.2188
0.9186	-74.2493
0.9187	-74.2188
0.9188	-74.2798
0.9189	-74.2188
0.919	-74.2188
0.9191	-74.2188
0.9192	-74.1882
0.9193	-74.2188
0.9194	-74.2798
0.9195	-74.2493
0.9196	-74.2493
0.9197	-74.2798
0.9198	-74.2798
0.9199	-74.2188
0.92	-74.2493
0.9201	-74.1882
0.9202	-74.2188
0.9203	-74.2188
0.9204	-74.1577
0.9205	-74.1577
0.9206	-74.1577
0.9207	-74.0967
0.9208	-74.0967
0.9209	-74.1272
0.921	-74.0967
0.9211	-74.0967
0.9212	-74.1577
0.9213	-74.1577
0.9214	-74.1577
0.9215	-74.1272
0.9216	-74.1272
0.9217	-74.1577
0.9218	-74.1577
0.9219	-74.1272
0.922	-74.1272
0.9221	-74.1577
0.9222	-74.0967
0.9223	-74.1577
0.9224	-74.1577
0.9225	-74.1272
0.9226	-74.1882
0.9227	-74.1272
0.9228	-74.1577
0.9229	-74.2493
0.923	-74.1577
0.9231	-74.1882
0.9232	-74.2188
0.9233	-74.2188
0.9234	-74.2188
0.9235	-74.2798
0.9236	-74.1882
0.9237	-74.2188
0.9238	-74.1882
0.9239	-74.1577
0.924	-74.1882
0.9241	-74.2493
0.9242	-74.2188
0.9243	-74.2188
0.9244	-74.2493
0.9245	-74.1882
0.9246	-74.1882
0.9247	-74.2188
0.9248	-74.2188
0.9249	-74.2188
0.925	-74.2493
0.9251	-74.2493
0.9252	-74.2493
0.9253	-74.2188
0.9254	-74.1882
0.9255	-74.1882
0.9256	-74.2493
0.9257	-74.2493
0.9258	-74.2798
0.9259	-74.2798
0.926	-74.2493
0.9261	-74.3408
0.9262	-74.3103
0.9263	-74.3103
0.9264	-74.3713
0.9265	-74.3713
0.9266	-74.3103
0.9267	-74.3713
0.9268	-74.3103
0.9269	-74.3408
0.927	-74.3408
0.9271	-74.3408
0.9272	-74.3408
0.9273	-74.3713
0.9274	-74.3408
0.9275	-74.2798
0.9276	-74.3408
0.9277	-74.3103
0.9278	-74.3408
0.9279	-74.3103
0.928	-74.3103
0.9281	-74.3103
0.9282	-74.2798
0.9283	-74.3103
0.9284	-74.3103
0.9285	-74.3713
0.9286	-74.3408
0.9287	-74.3713
0.9288	-74.3103
0.9289	-74.3103
0.929	-74.3713
0.9291	-74.3408
0.9292	-74.3408
0.9293	-74.3713
0.9294	-74.3713
0.9295	-74.3408
0.9296	-74.4019
0.9297	-74.3713
0.9298	-74.3408
0.9299	-74.4324
0.93	-74.3713
0.9301	-74.3103
0.9302	-74.3713
0.9303	-74.3103
0.9304	-74.3408
0.9305	-74.3713
0.9306	-74.3103
0.9307	-74.3103
0.9308	-74.3408
0.9309	-74.2798
0.931	-74.2798
0.9311	-74.3408
0.9312	-74.2493
0.9313	-74.2798
0.9314	-74.3408
0.9315	-74.2493
0.9316	-74.2493
0.9317	-74.2493
0.9318	-74.2798
0.9319	-74.3408
0.932	-74.2798
0.9321	-74.2798
0.9322	-74.3103
0.9323	-74.2798
0.9324	-74.3103
0.9325	-74.3408
0.9326	-74.2798
0.9327	-74.3103
0.9328	-74.3103
0.9329	-74.3103
0.933	-74.2493
0.9331	-74.2798
0.9332	-74.2493
0.9333	-74.2188
0.9334	-74.2798
0.9335	-74.2493
0.9336	-74.2798
0.9337	-74.3103
0.9338	-74.2798
0.9339	-74.2493
0.934	-74.2493
0.9341	-74.2493
0.9342	-74.2493
0.9343	-74.2798
0.9344	-74.2493
0.9345	-74.2493
0.9346	-74.3103
0.9347	-74.2493
0.9348	-74.2798
0.9349	-74.2493
0.935	-74.2188
0.9351	-74.1882
0.9352	-74.2493
0.9353	-74.1882
0.9354	-74.2188
0.9355	-74.1882
0.9356	-74.1577
0.9357	-74.2188
0.9358	-74.1882
0.9359	-74.1882
0.936	-74.1882
0.9361	-74.2188
0.9362	-74.2188
0.9363	-74.2188
0.9364	-74.1577
0.9365	-74.1577
0.9366	-74.2188
0.9367	-74.1577
0.9368	-74.1272
0.9369	-74.1882
0.937	-74.1272
0.9371	-74.1272
0.9372	-74.1577
0.9373	-74.1577
0.9374	-74.0967
0.9375	-74.1272
0.9376	-74.0967
0.9377	-74.1272
0.9378	-74.1577
0.9379	-74.1272
0.938	-74.1272
0.9381	-74.1882
0.9382	-74.1882
0.9383	-74.1882
0.9384	-74.1577
0.9385	-74.1882
0.9386	-74.2188
0.9387	-74.2493
0.9388	-74.1882
0.9389	-74.1882
0.939	-74.2798
0.9391	-74.2188
0.9392	-74.1882
0.9393	-74.1882
0.9394	-74.1577
0.9395	-74.2493
0.9396	-74.1882
0.9397	-74.2188
0.9398	-74.2798
0.9399	-74.2188
0.94	-74.2493
0.9401	-74.2798
0.9402	-74.2188
0.9403	-74.2188
0.9404	-74.2798
0.9405	-74.2188
0.9406	-74.2493
0.9407	-74.2493
0.9408	-74.1882
0.9409	-74.1882
0.941	-74.2798
0.9411	-74.2188
0.9412	-74.1577
0.9413	-74.1882
0.9414	-74.1882
0.9415	-74.1577
0.9416	-74.1882
0.9417	-74.1577
0.9418	-74.1577
0.9419	-74.2493
0.942	-74.1882
0.9421	-74.1882
0.9422	-74.1882
0.9423	-74.2188
0.9424	-74.1882
0.9425	-74.1882
0.9426	-74.2188
0.9427	-74.2188
0.9428	-74.1882
0.9429	-74.1882
0.943	-74.2188
0.9431	-74.1882
0.9432	-74.1882
0.9433	-74.2493
0.9434	-74.2188
0.9435	-74.2493
0.9436	-74.2493
0.9437	-74.1882
0.9438	-74.2188
0.9439	-74.2493
0.944	-74.1882
0.9441	-74.2188
0.9442	-74.2188
0.9443	-74.2188
0.9444	-74.1577
0.9445	-74.1882
0.9446	-74.1882
0.9447	-74.1882
0.9448	-74.1577
0.9449	-74.2188
0.945	-74.2493
0.9451	-74.2493
0.9452	-74.2188
0.9453	-74.2493
0.9454	-74.2493
0.9455	-74.2493
0.9456	-74.2798
0.9457	-74.2493
0.9458	-74.2493
0.9459	-74.2798
0.946	-74.2493
0.9461	-74.2493
0.9462	-74.2798
0.9463	-74.2493
0.9464	-74.2493
0.9465	-74.2493
0.9466	-74.2493
0.9467	-74.2493
0.9468	-74.3103
0.9469	-74.2493
0.947	-74.2493
0.9471	-74.2493
0.9472	-74.2798
0.9473	-74.2493
0.9474	-74.2798
0.9475	-74.1577
0.9476	-74.1882
0.9477	-74.2493
0.9478	-74.2188
0.9479	-74.1882
0.948	-74.2493
0.9481	-74.2188
0.9482	-74.1882
0.9483	-74.1882
0.9484	-74.2188
0.9485	-74.2493
0.9486	-74.2798
0.9487	-74.2188
0.9488	-74.2493
0.9489	-74.2493
0.949	-74.2798
0.9491	-74.2798
0.9492	-74.2188
0.9493	-74.2493
0.9494	-74.2798
0.9495	-74.2188
0.9496	-74.2493
0.9497	-74.3713
0.9498	-74.2493
0.9499	-74.2188
0.95	-74.2798
0.9501	-74.2188
0.9502	-74.1882
0.9503	-74.2188
0.9504	-74.1882
0.9505	-74.1577
0.9506	-74.2188
0.9507	-74.1577
0.9508	-74.1577
0.9509	-74.1882
0.951	-74.1577
0.9511	-74.1577
0.9512	-74.1882
0.9513	-74.1577
0.9514	-74.1272
0.9515	-74.1882
0.9516	-74.1272
0.9517	-74.1577
0.9518	-74.1272
0.9519	-74.0662
0.952	-74.1272
0.9521	-74.1577
0.9522	-74.1577
0.9523	-74.1272
0.9524	-74.1577
0.9525	-74.1882
0.9526	-74.2188
0.9527	-74.1882
0.9528	-74.1882
0.9529	-74.2188
0.953	-74.1577
0.9531	-74.1882
0.9532	-74.1882
0.9533	-74.1577
0.9534	-74.1577
0.9535	-74.2188
0.9536	-74.1577
0.9537	-74.1577
0.9538	-74.1882
0.9539	-74.1577
0.954	-74.1272
0.9541	-74.1577
0.9542	-74.1272
0.9543	-74.1577
0.9544	-74.1272
0.9545	-74.0967
0.9546	-74.1272
0.9547	-74.1272
0.9548	-74.1272
0.9549	-74.1272
0.955	-74.1577
0.9551	-74.1272
0.9552	-74.0967
0.9553	-74.1272
0.9554	-74.1272
0.9555	-74.1577
0.9556	-74.1577
0.9557	-74.1272
0.9558	-74.1577
0.9559	-74.1882
0.956	-74.1577
0.9561	-74.2188
0.9562	-74.1577
0.9563	-74.1882
0.9564	-74.2188
0.9565	-74.1882
0.9566	-74.1577
0.9567	-74.2188
0.9568	-74.1882
0.9569	-74.1882
0.957	-74.1882
0.9571	-74.1577
0.9572	-74.1272
0.9573	-74.1882
0.9574	-74.1577
0.9575	-74.1272
0.9576	-74.1882
0.9577	-74.0967
0.9578	-74.1272
0.9579	-74.1577
0.958	-74.1577
0.9581	-74.1577
0.9582	-74.1577
0.9583	-74.0967
0.9584	-74.1577
0.9585	-74.1882
0.9586	-74.1577
0.9587	-74.1272
0.9588	-74.1577
0.9589	-74.1272
0.959	-74.2188
0.9591	-74.1882
0.9592	-74.2188
0.9593	-74.2798
0.9594	-74.1882
0.9595	-74.1272
0.9596	-74.1882
0.9597	-74.1882
0.9598	-74.1577
0.9599	-74.1882
0.96	-74.1577
0.9601	-74.1577
0.9602	-74.2188
0.9603	-74.1577
0.9604	-74.1577
0.9605	-74.1882
0.9606	-74.2188
0.9607	-74.1577
0.9608	-74.1882
0.9609	-74.1272
0.961	-74.1272
0.9611	-74.1577
0.9612	-74.1577
0.9613	-74.1577
0.9614	-74.1272
0.9615	-74.0662
0.9616	-74.1272
0.9617	-74.1577
0.9618	-74.1272
0.9619	-74.1577
0.962	-74.2188
0.9621	-74.1882
0.9622	-74.2188
0.9623	-74.1882
0.9624	-74.1577
0.9625	-74.1882
0.9626	-74.2188
0.9627	-74.1882
0.9628	-74.2188
0.9629	-74.1882
0.963	-74.1882
0.9631	-74.2493
0.9632	-74.1577
0.9633	-74.1882
0.9634	-74.2188
0.9635	-74.1882
0.9636	-74.1577
0.9637	-74.2188
0.9638	-74.1882
0.9639	-74.1882
0.964	-74.2798
0.9641	-74.2188
0.9642	-74.1882
0.9643	-74.2188
0.9644	-74.1882
0.9645	-74.1882
0.9646	-74.1272
0.9647	-74.1272
0.9648	-74.1272
0.9649	-74.1577
0.965	-74.1272
0.9651	-74.1882
0.9652	-74.2493
0.9653	-74.1577
0.9654	-74.1882
0.9655	-74.1882
0.9656	-74.1882
0.9657	-74.1272
0.9658	-74.1882
0.9659	-74.1882
0.966	-74.1882
0.9661	-74.1882
0.9662	-74.1272
0.9663	-74.1882
0.9664	-74.1577
0.9665	-74.1272
0.9666	-74.1577
0.9667	-74.0967
0.9668	-74.0967
0.9669	-74.1577
0.967	-74.1272
0.9671	-74.0967
0.9672	-74.0967
0.9673	-74.0662
0.9674	-74.0967
0.9675	-74.1272
0.9676	-74.0967
0.9677	-74.0662
0.9678	-74.0967
0.9679	-74.0662
0.968	-74.0662
0.9681	-74.1272
0.9682	-74.0662
0.9683	-74.0967
0.9684	-74.0967
0.9685	-74.0662
0.9686	-74.0356
0.9687	-74.0662
0.9688	-74.0662
0.9689	-74.1272
0.969	-74.1882
0.9691	-74.0967
0.9692	-74.1272
0.9693	-74.1272
0.9694	-74.1272
0.9695	-74.1272
0.9696	-74.0967
0.9697	-74.0967
0.9698	-74.1272
0.9699	-74.0662
0.97	-74.0662
0.9701	-74.0967
0.9702	-74.0356
0.9703	-74.0051
0.9704	-74.0356
0.9705	-73.9746
0.9706	-73.9746
0.9707	-73.9746
0.9708	-73.9441
0.9709	-74.0051
0.971	-74.0051
0.9711	-73.9746
0.9712	-73.9746
0.9713	-74.0051
0.9714	-73.9441
0.9715	-73.9136
0.9716	-73.9746
0.9717	-73.9746
0.9718	-73.9746
0.9719	-73.9441
0.972	-73.9746
0.9721	-73.9441
0.9722	-74.0356
0.9723	-74.0356
0.9724	-74.0356
0.9725	-74.0662
0.9726	-74.0356
0.9727	-74.0662
0.9728	-74.0356
0.9729	-73.9746
0.973	-74.0051
0.9731	-74.0356
0.9732	-73.9746
0.9733	-74.0356
0.9734	-73.9441
0.9735	-74.0051
0.9736	-74.0356
0.9737	-74.0051
0.9738	-74.0051
0.9739	-74.0662
0.974	-73.9441
0.9741	-73.9746
0.9742	-74.0051
0.9743	-74.0051
0.9744	-74.0051
0.9745	-74.0662
0.9746	-74.0356
0.9747	-74.0356
0.9748	-74.0662
0.9749	-74.0051
0.975	-74.0356
0.9751	-74.0662
0.9752	-74.0356
0.9753	-74.0662
0.9754	-74.0356
0.9755	-74.0051
0.9756	-74.0051
0.9757	-74.0051
0.9758	-73.9746
0.9759	-73.9746
0.976	-74.0051
0.9761	-74.0051
0.9762	-74.0356
0.9763	-74.0356
0.9764	-74.0356
0.9765	-74.0662
0.9766	-74.0662
0.9767	-74.0967
0.9768	-74.1272
0.9769	-74.0356
0.977	-74.0051
0.9771	-74.0967
0.9772	-74.0356
0.9773	-73.9746
0.9774	-74.0051
0.9775	-74.0356
0.9776	-74.0051
0.9777	-74.0356
0.9778	-73.9746
0.9779	-74.0051
0.978	-74.0356
0.9781	-73.9746
0.9782	-73.9746
0.9783	-74.0051
0.9784	-74.0356
0.9785	-73.9746
0.9786	-74.0356
0.9787	-74.0662
0.9788	-74.0662
0.9789	-74.0662
0.979	-74.0662
0.9791	-74.0967
0.9792	-74.0967
0.9793	-74.1272
0.9794	-74.1272
0.9795	-74.0967
0.9796	-74.0356
0.9797	-74.0662
0.9798	-74.0967
0.9799	-74.0967
0.98	-74.0967
0.9801	-74.1272
0.9802	-74.0967
0.9803	-74.1272
0.9804	-74.0662
0.9805	-74.0662
0.9806	-74.0967
0.9807	-74.0051
0.9808	-74.0662
0.9809	-74.0051
0.981	-74.0356
0.9811	-74.0356
0.9812	-74.0356
0.9813	-74.0356
0.9814	-74.0662
0.9815	-74.0662
0.9816	-74.0356
0.9817	-74.0356
0.9818	-74.0662
0.9819	-74.0356
0.982	-74.0967
0.9821	-74.0967
0.9822	-74.0967
0.9823	-74.1272
0.9824	-74.0967
0.9825	-74.0662
0.9826	-74.0662
0.9827	-74.0662
0.9828	-74.0967
0.9829	-74.0967
0.983	-74.0967
0.9831	-74.0967
0.9832	-74.0662
0.9833	-74.0967
0.9834	-74.0967
0.9835	-74.1272
0.9836	-74.0662
0.9837	-74.0356
0.9838	-74.1272
0.9839	-74.0662
0.984	-74.0662
0.9841	-74.0967
0.9842	-74.0662
0.9843	-74.0662
0.9844	-74.0967
0.9845	-74.0662
0.9846	-74.0662
0.9847	-74.1272
0.9848	-74.0356
0.9849	-74.0662
0.985	-74.0967
0.9851	-74.0967
0.9852	-74.0967
0.9853	-74.0967
0.9854	-74.0356
0.9855	-74.0356
0.9856	-74.0967
0.9857	-74.0662
0.9858	-74.0662
0.9859	-74.0356
0.986	-74.0051
0.9861	-74.0051
0.9862	-74.0051
0.9863	-74.0051
0.9864	-74.0356
0.9865	-74.0051
0.9866	-74.0356
0.9867	-74.0356
0.9868	-74.0051
0.9869	-73.9441
0.987	-73.9441
0.9871	-73.9746
0.9872	-73.9746
0.9873	-74.0051
0.9874	-73.9441
0.9875	-73.9136
0.9876	-73.9136
0.9877	-73.8831
0.9878	-73.9441
0.9879	-73.9441
0.988	-73.9441
0.9881	-73.9746
0.9882	-73.9746
0.9883	-74.0356
0.9884	-73.9746
0.9885	-73.9746
0.9886	-74.0051
0.9887	-74.0051
0.9888	-74.0662
0.9889	-73.9746
0.989	-74.0662
0.9891	-74.0662
0.9892	-74.0356
0.9893	-74.0967
0.9894	-74.0662
0.9895	-74.0662
0.9896	-74.0662
0.9897	-74.0356
0.9898	-74.0051
0.9899	-74.0967
0.99	-74.0662
0.9901	-74.0356
0.9902	-74.0662
0.9903	-74.0662
0.9904	-74.0356
0.9905	-74.0967
0.9906	-74.0356
0.9907	-74.0356
0.9908	-74.1272
0.9909	-74.0356
0.991	-74.0356
0.9911	-74.0356
0.9912	-74.0356
0.9913	-74.0662
0.9914	-74.0967
0.9915	-74.0967
0.9916	-74.0662
0.9917	-74.0662
0.9918	-74.0662
0.9919	-74.0356
0.992	-74.0967
0.9921	-74.0662
0.9922	-74.0967
0.9923	-74.1272
0.9924	-74.0356
0.9925	-74.0051
0.9926	-74.0662
0.9927	-74.0356
0.9928	-74.1272
0.9929	-74.0967
0.993	-74.1272
0.9931	-74.1272
0.9932	-74.0967
0.9933	-74.0967
0.9934	-74.1272
0.9935	-74.0662
0.9936	-74.0662
0.9937	-74.0967
0.9938	-74.0967
0.9939	-74.0356
0.994	-74.0662
0.9941	-74.0051
0.9942	-74.0356
0.9943	-74.0356
0.9944	-74.0051
0.9945	-74.0051
0.9946	-74.0662
0.9947	-74.0051
0.9948	-74.0356
0.9949	-74.0662
0.995	-74.0356
0.9951	-74.0356
0.9952	-74.1272
0.9953	-74.0967
0.9954	-74.0662
0.9955	-74.0967
0.9956	-74.0967
0.9957	-74.0967
0.9958	-74.0967
0.9959	-74.0967
0.996	-74.0356
0.9961	-74.0356
0.9962	-74.0662
0.9963	-74.0967
0.9964	-74.0662
0.9965	-74.0967
0.9966	-74.0662
0.9967	-74.0662
0.9968	-74.0051
0.9969	-74.0967
0.997	-74.0356
0.9971	-74.0051
0.9972	-74.0662
0.9973	-74.0967
0.9974	-74.0051
0.9975	-74.0662
0.9976	-74.0051
0.9977	-74.0051
0.9978	-74.0662
0.9979	-74.0051
0.998	-74.0051
0.9981	-74.0356
0.9982	-74.0356
0.9983	-74.0356
0.9984	-74.0967
0.9985	-74.0662
0.9986	-74.0356
0.9987	-74.0967
0.9988	-74.0356
0.9989	-74.0356
0.999	-74.0967
0.9991	-74.0662
0.9992	-74.0356
0.9993	-74.0662
0.9994	-74.0662
0.9995	-74.0356
0.9996	-74.0356
0.9997	-74.0356
0.9998	-74.0356
0.9999	-74.0356
